# Temperatura celda = 28.1ยบ, Temperatura Laser = 23.926ยบ, Frecuencia Rampa = 79.13 Hz, Amplitud = 76 mVpp, Offset = -4.9 mV, Error Mean = 45, Error std = 821, Xscale = 1020 us, Yscale = 1V 
t1 [us]      ,ch1 [V]     ,t2 [us]      ,ch2 [V]
5609.984,   -0.077, 5609.984,    0.034
5611.008,   -0.076, 5611.008,    0.034
5612.032,   -0.066, 5612.032,    0.033
5613.056,   -0.058, 5613.056,    0.032
5614.080,   -0.053, 5614.080,    0.032
5615.104,   -0.028, 5615.104,    0.030
5616.128,   -0.015, 5616.128,    0.029
5617.152,   -0.006, 5617.152,    0.029
5618.176,    0.006, 5618.176,    0.028
5619.200,    0.029, 5619.200,    0.026
5620.224,    0.045, 5620.224,    0.025
5621.248,    0.051, 5621.248,    0.025
5622.272,    0.063, 5622.272,    0.024
5623.296,    0.062, 5623.296,    0.024
5624.320,    0.072, 5624.320,    0.023
5625.344,    0.075, 5625.344,    0.023
5626.368,    0.085, 5626.368,    0.022
5627.392,    0.075, 5627.392,    0.023
5628.416,    0.071, 5628.416,    0.023
5629.440,    0.081, 5629.440,    0.022
5630.464,    0.070, 5630.464,    0.023
5631.488,    0.073, 5631.488,    0.023
5632.512,    0.053, 5632.512,    0.024
5633.536,    0.066, 5633.536,    0.024
5634.560,    0.051, 5634.560,    0.025
5635.584,    0.057, 5635.584,    0.024
5636.608,    0.051, 5636.608,    0.025
5637.632,    0.045, 5637.632,    0.025
5638.656,    0.051, 5638.656,    0.025
5639.680,    0.041, 5639.680,    0.025
5640.704,    0.035, 5640.704,    0.026
5641.728,    0.029, 5641.728,    0.026
5642.752,    0.035, 5642.752,    0.026
5643.776,    0.030, 5643.776,    0.026
5644.800,    0.027, 5644.800,    0.026
5645.824,    0.020, 5645.824,    0.027
5646.848,    0.016, 5646.848,    0.027
5647.872,    0.022, 5647.872,    0.027
5648.896,    0.011, 5648.896,    0.028
5649.920,    0.019, 5649.920,    0.027
5650.944,    0.005, 5650.944,    0.028
5651.968,    0.006, 5651.968,    0.028
5652.992,    0.005, 5652.992,    0.028
5654.016,   -0.002, 5654.016,    0.029
5655.040,   -0.004, 5655.040,    0.029
5656.064,   -0.003, 5656.064,    0.029
5657.088,   -0.004, 5657.088,    0.029
5658.112,   -0.012, 5658.112,    0.030
5659.136,   -0.012, 5659.136,    0.030
5660.160,   -0.016, 5660.160,    0.030
5661.184,   -0.019, 5661.184,    0.030
5662.208,   -0.016, 5662.208,    0.030
5663.232,   -0.017, 5663.232,    0.030
5664.256,   -0.023, 5664.256,    0.030
5665.280,   -0.017, 5665.280,    0.030
5666.304,   -0.026, 5666.304,    0.030
5667.328,   -0.022, 5667.328,    0.030
5668.352,   -0.025, 5668.352,    0.031
5669.376,   -0.025, 5669.376,    0.031
5670.400,   -0.028, 5670.400,    0.031
5671.424,   -0.030, 5671.424,    0.031
5672.448,   -0.029, 5672.448,    0.031
5673.472,   -0.025, 5673.472,    0.031
5674.496,   -0.027, 5674.496,    0.031
5675.520,   -0.026, 5675.520,    0.031
5676.544,   -0.027, 5676.544,    0.031
5677.568,   -0.027, 5677.568,    0.031
5678.592,   -0.024, 5678.592,    0.031
5679.616,   -0.026, 5679.616,    0.031
5680.640,   -0.030, 5680.640,    0.031
5681.664,   -0.027, 5681.664,    0.031
5682.688,   -0.024, 5682.688,    0.031
5683.712,   -0.025, 5683.712,    0.031
5684.736,   -0.029, 5684.736,    0.031
5685.760,   -0.023, 5685.760,    0.031
5686.784,   -0.022, 5686.784,    0.031
5687.808,   -0.024, 5687.808,    0.031
5688.832,   -0.025, 5688.832,    0.031
5689.856,   -0.025, 5689.856,    0.031
5690.880,   -0.027, 5690.880,    0.031
5691.904,   -0.030, 5691.904,    0.031
5692.928,   -0.027, 5692.928,    0.031
5693.952,   -0.027, 5693.952,    0.031
5694.976,   -0.027, 5694.976,    0.031
5696.000,   -0.035, 5696.000,    0.032
5697.024,   -0.033, 5697.024,    0.032
5698.048,   -0.036, 5698.048,    0.032
5699.072,   -0.034, 5699.072,    0.032
5700.096,   -0.041, 5700.096,    0.032
5701.120,   -0.037, 5701.120,    0.032
5702.144,   -0.038, 5702.144,    0.032
5703.168,   -0.041, 5703.168,    0.032
5704.192,   -0.070, 5704.192,    0.035
5705.216,   -0.044, 5705.216,    0.033
5706.240,   -0.047, 5706.240,    0.033
5707.264,   -0.052, 5707.264,    0.033
5708.288,   -0.055, 5708.288,    0.033
5709.312,   -0.061, 5709.312,    0.034
5710.336,   -0.063, 5710.336,    0.034
5711.360,   -0.075, 5711.360,    0.035
5712.384,   -0.075, 5712.384,    0.035
5713.408,   -0.081, 5713.408,    0.035
5714.432,   -0.079, 5714.432,    0.035
5715.456,   -0.091, 5715.456,    0.036
5716.480,   -0.094, 5716.480,    0.036
5717.504,   -0.111, 5717.504,    0.037
5718.528,   -0.107, 5718.528,    0.037
5719.552,   -0.121, 5719.552,    0.038
5720.576,   -0.118, 5720.576,    0.038
5721.600,   -0.150, 5721.600,    0.041
5722.624,   -0.148, 5722.624,    0.040
5723.648,   -0.174, 5723.648,    0.042
5724.672,   -0.180, 5724.672,    0.043
5725.696,   -0.207, 5725.696,    0.045
5726.720,   -0.199, 5726.720,    0.044
5727.744,   -0.223, 5727.744,    0.046
5728.768,   -0.223, 5728.768,    0.046
5729.792,   -0.274, 5729.792,    0.050
5730.816,   -0.267, 5730.816,    0.049
5731.840,   -0.300, 5731.840,    0.052
5732.864,   -0.249, 5732.864,    0.048
5733.888,   -0.328, 5733.888,    0.054
5734.912,   -0.264, 5734.912,    0.049
5735.936,   -0.282, 5735.936,    0.050
5736.960,   -0.232, 5736.960,    0.046
5737.984,   -0.203, 5737.984,    0.045
5739.008,   -0.143, 5739.008,    0.040
5740.032,   -0.093, 5740.032,    0.037
5741.056,   -0.041, 5741.056,    0.033
5742.080,    0.014, 5742.080,    0.029
5743.104,    0.080, 5743.104,    0.024
5744.128,    0.098, 5744.128,    0.023
5745.152,    0.205, 5745.152,    0.015
5746.176,    0.219, 5746.176,    0.014
5747.200,    0.295, 5747.200,    0.008
5748.224,    0.266, 5748.224,    0.011
5749.248,    0.313, 5749.248,    0.007
5750.272,    0.284, 5750.272,    0.009
5751.296,    0.311, 5751.296,    0.007
5752.320,    0.276, 5752.320,    0.010
5753.344,    0.196, 5753.344,    0.016
5754.368,    0.234, 5754.368,    0.013
5755.392,    0.222, 5755.392,    0.014
5756.416,    0.202, 5756.416,    0.015
5757.440,    0.175, 5757.440,    0.017
5758.464,    0.169, 5758.464,    0.018
5759.488,    0.153, 5759.488,    0.019
5760.512,    0.155, 5760.512,    0.019
5761.536,    0.118, 5761.536,    0.022
5762.560,    0.118, 5762.560,    0.021
5763.584,    0.115, 5763.584,    0.022
5764.608,    0.099, 5764.608,    0.023
5765.632,    0.086, 5765.632,    0.024
5766.656,    0.072, 5766.656,    0.025
5767.680,    0.088, 5767.680,    0.024
5768.704,    0.048, 5768.704,    0.027
5769.728,    0.051, 5769.728,    0.026
5770.752,    0.047, 5770.752,    0.027
5771.776,    0.033, 5771.776,    0.028
5772.800,    0.055, 5772.800,    0.027
5773.824,    0.030, 5773.824,    0.028
5774.848,    0.053, 5774.848,    0.027
5775.872,    0.013, 5775.872,    0.029
5776.896,    0.023, 5776.896,    0.028
5777.920,    0.008, 5777.920,    0.030
5778.944,    0.025, 5778.944,    0.029
5779.968,    0.008, 5779.968,    0.030
5780.992,    0.006, 5780.992,    0.030
5782.016,   -0.007, 5782.016,    0.031
5783.040,    0.001, 5783.040,    0.030
5784.064,   -0.006, 5784.064,    0.031
5785.088,    0.001, 5785.088,    0.030
5786.112,   -0.005, 5786.112,    0.031
5787.136,   -0.007, 5787.136,    0.031
5788.160,    0.000, 5788.160,    0.030
5789.184,   -0.007, 5789.184,    0.031
5790.208,    0.019, 5790.208,    0.029
5791.232,    0.001, 5791.232,    0.031
5792.256,    0.010, 5792.256,    0.030
5793.280,    0.001, 5793.280,    0.030
5794.304,    0.000, 5794.304,    0.030
5795.328,   -0.006, 5795.328,    0.031
5796.352,    0.004, 5796.352,    0.030
5797.376,    0.001, 5797.376,    0.030
5798.400,    0.003, 5798.400,    0.030
5799.424,    0.005, 5799.424,    0.030
5800.448,   -0.001, 5800.448,    0.031
5801.472,    0.025, 5801.472,    0.029
5802.496,    0.010, 5802.496,    0.030
5803.520,    0.010, 5803.520,    0.030
5804.544,    0.010, 5804.544,    0.030
5805.568,    0.012, 5805.568,    0.030
5806.592,    0.014, 5806.592,    0.030
5807.616,    0.014, 5807.616,    0.030
5808.640,    0.008, 5808.640,    0.030
5809.664,    0.007, 5809.664,    0.030
5810.689,    0.014, 5810.689,    0.030
5811.712,    0.017, 5811.712,    0.030
5812.736,    0.006, 5812.736,    0.030
5813.760,    0.008, 5813.760,    0.030
5814.784,    0.013, 5814.784,    0.030
5815.808,    0.015, 5815.808,    0.030
5816.832,    0.016, 5816.832,    0.030
5817.856,    0.008, 5817.856,    0.030
5818.880,    0.017, 5818.880,    0.030
5819.904,    0.015, 5819.904,    0.030
5820.928,    0.010, 5820.928,    0.030
5821.952,    0.012, 5821.952,    0.030
5822.976,    0.013, 5822.976,    0.030
5824.000,    0.009, 5824.000,    0.030
5825.024,    0.017, 5825.024,    0.030
5826.048,    0.017, 5826.048,    0.030
5827.072,    0.015, 5827.072,    0.030
5828.096,    0.013, 5828.096,    0.030
5829.120,    0.012, 5829.120,    0.030
5830.144,    0.018, 5830.144,    0.030
5831.168,    0.014, 5831.168,    0.030
5832.192,    0.012, 5832.192,    0.030
5833.216,    0.011, 5833.216,    0.030
5834.240,    0.009, 5834.240,    0.030
5835.264,    0.009, 5835.264,    0.030
5836.288,    0.007, 5836.288,    0.030
5837.312,    0.011, 5837.312,    0.030
5838.336,    0.009, 5838.336,    0.031
5839.360,    0.011, 5839.360,    0.030
5840.384,    0.006, 5840.384,    0.031
5841.408,    0.007, 5841.408,    0.031
5842.432,    0.005, 5842.432,    0.031
5843.456,    0.004, 5843.456,    0.031
5844.480,    0.006, 5844.480,    0.031
5845.504,    0.006, 5845.504,    0.031
5846.528,    0.004, 5846.528,    0.031
5847.552,    0.005, 5847.552,    0.031
5848.576,    0.007, 5848.576,    0.031
5849.600,    0.002, 5849.600,    0.031
5850.624,    0.002, 5850.624,    0.032
5851.648,   -0.001, 5851.648,    0.032
5852.672,    0.002, 5852.672,    0.031
5853.696,   -0.006, 5853.696,    0.032
5854.720,   -0.001, 5854.720,    0.032
5855.744,   -0.014, 5855.744,    0.032
5856.768,   -0.004, 5856.768,    0.032
5857.792,   -0.012, 5857.792,    0.032
5858.816,   -0.010, 5858.816,    0.032
5859.840,   -0.014, 5859.840,    0.032
5860.864,   -0.013, 5860.864,    0.033
5861.888,   -0.019, 5861.888,    0.033
5862.912,   -0.019, 5862.912,    0.033
5863.936,   -0.027, 5863.936,    0.033
5864.960,   -0.026, 5864.960,    0.034
5865.984,   -0.030, 5865.984,    0.034
5867.008,   -0.037, 5867.008,    0.034
5868.032,   -0.038, 5868.032,    0.034
5869.056,   -0.057, 5869.056,    0.036
5870.080,   -0.046, 5870.080,    0.035
5871.104,   -0.071, 5871.104,    0.037
5872.128,   -0.054, 5872.128,    0.036
5873.152,   -0.082, 5873.152,    0.038
5874.176,   -0.076, 5874.176,    0.037
5875.200,   -0.095, 5875.200,    0.039
5876.224,   -0.093, 5876.224,    0.038
5877.248,   -0.113, 5877.248,    0.040
5878.272,   -0.116, 5878.272,    0.040
5879.296,   -0.133, 5879.296,    0.041
5880.320,   -0.140, 5880.320,    0.042
5881.344,   -0.150, 5881.344,    0.043
5882.368,   -0.174, 5882.368,    0.045
5883.392,   -0.193, 5883.392,    0.046
5884.416,   -0.145, 5884.416,    0.043
5885.440,   -0.222, 5885.440,    0.048
5886.464,   -0.169, 5886.464,    0.044
5887.488,   -0.232, 5887.488,    0.049
5888.512,   -0.196, 5888.512,    0.046
5889.536,   -0.237, 5889.536,    0.049
5890.560,   -0.212, 5890.560,    0.047
5891.584,   -0.225, 5891.584,    0.048
5892.608,   -0.212, 5892.608,    0.047
5893.632,   -0.223, 5893.632,    0.048
5894.656,   -0.183, 5894.656,    0.045
5895.680,   -0.179, 5895.680,    0.045
5896.704,   -0.108, 5896.704,    0.040
5897.728,   -0.097, 5897.728,    0.039
5898.752,    0.063, 5898.752,    0.027
5899.776,    0.037, 5899.776,    0.030
5900.800,    0.054, 5900.800,    0.028
5901.824,    0.148, 5901.824,    0.021
5902.848,    0.183, 5902.848,    0.019
5903.872,    0.267, 5903.872,    0.013
5904.896,    0.328, 5904.896,    0.008
5905.920,    0.389, 5905.920,    0.004
5906.944,    0.444, 5906.944,   -0.000
5907.968,    0.419, 5907.968,    0.002
5908.992,    0.551, 5908.992,   -0.008
5910.016,    0.553, 5910.016,   -0.008
5911.040,    0.596, 5911.040,   -0.011
5912.064,    0.569, 5912.064,   -0.009
5913.088,    0.615, 5913.088,   -0.013
5914.112,    0.588, 5914.112,   -0.011
5915.136,    0.503, 5915.136,   -0.006
5916.160,    0.598, 5916.160,   -0.011
5917.184,    0.431, 5917.184,    0.001
5918.208,    0.567, 5918.208,   -0.009
5919.232,    0.456, 5919.232,   -0.000
5920.256,    0.508, 5920.256,   -0.004
5921.280,    0.486, 5921.280,   -0.003
5922.304,    0.556, 5922.304,   -0.008
5923.328,    0.509, 5923.328,   -0.005
5924.352,    0.540, 5924.352,   -0.007
5925.376,    0.497, 5925.376,   -0.003
5926.400,    0.541, 5926.400,   -0.007
5927.424,    0.536, 5927.424,   -0.006
5928.448,    0.553, 5928.448,   -0.008
5929.472,    0.537, 5929.472,   -0.007
5930.496,    0.483, 5930.496,   -0.004
5931.520,    0.473, 5931.520,   -0.002
5932.544,    0.421, 5932.544,    0.002
5933.568,    0.539, 5933.568,   -0.007
5934.592,    0.445, 5934.592,    0.001
5935.616,    0.544, 5935.616,   -0.007
5936.640,    0.481, 5936.640,   -0.002
5937.664,    0.545, 5937.664,   -0.007
5938.688,    0.493, 5938.688,   -0.003
5939.712,    0.551, 5939.712,   -0.008
5940.736,    0.460, 5940.736,   -0.001
5941.760,    0.495, 5941.760,   -0.003
5942.784,    0.467, 5942.784,   -0.001
5943.808,    0.463, 5943.808,   -0.001
5944.832,    0.455, 5944.832,   -0.000
5945.856,    0.425, 5945.856,    0.001
5946.880,    0.409, 5946.880,    0.003
5947.904,    0.245, 5947.904,    0.015
5948.928,    0.385, 5948.928,    0.005
5949.952,    0.265, 5949.952,    0.014
5950.976,    0.319, 5950.976,    0.009
5952.000,    0.268, 5952.000,    0.013
5953.024,    0.277, 5953.024,    0.013
5954.048,    0.223, 5954.048,    0.017
5955.072,    0.203, 5955.072,    0.018
5956.096,    0.191, 5956.096,    0.019
5957.120,    0.163, 5957.120,    0.021
5958.144,    0.150, 5958.144,    0.022
5959.168,    0.128, 5959.168,    0.023
5960.192,    0.108, 5960.192,    0.025
5961.216,    0.104, 5961.216,    0.025
5962.240,    0.088, 5962.240,    0.027
5963.264,    0.111, 5963.264,    0.025
5964.288,    0.074, 5964.288,    0.028
5965.312,    0.066, 5965.312,    0.028
5966.336,    0.051, 5966.336,    0.029
5967.360,    0.079, 5967.360,    0.027
5968.384,    0.055, 5968.384,    0.029
5969.408,    0.054, 5969.408,    0.029
5970.432,    0.037, 5970.432,    0.030
5971.456,    0.058, 5971.456,    0.029
5972.480,    0.049, 5972.480,    0.029
5973.504,    0.070, 5973.504,    0.028
5974.528,    0.057, 5974.528,    0.029
5975.552,    0.076, 5975.552,    0.028
5976.576,    0.106, 5976.576,    0.025
5977.600,    0.117, 5977.600,    0.024
5978.624,    0.115, 5978.624,    0.025
5979.648,    0.132, 5979.648,    0.024
5980.672,    0.156, 5980.672,    0.022
5981.696,    0.159, 5981.696,    0.022
5982.720,    0.181, 5982.720,    0.020
5983.744,    0.204, 5983.744,    0.018
5984.768,    0.233, 5984.768,    0.016
5985.792,    0.229, 5985.792,    0.016
5986.816,    0.272, 5986.816,    0.014
5987.840,    0.294, 5987.840,    0.012
5988.864,    0.299, 5988.864,    0.011
5989.888,    0.334, 5989.888,    0.009
5990.912,    0.351, 5990.912,    0.008
5991.936,    0.396, 5991.936,    0.004
5992.960,    0.398, 5992.960,    0.004
5993.984,    0.363, 5993.984,    0.006
5995.008,    0.438, 5995.008,    0.002
5996.032,    0.159, 5996.032,    0.022
5997.056,    0.440, 5997.056,    0.001
5998.080,    0.392, 5998.080,    0.006
5999.104,    0.480, 5999.104,   -0.001
6000.128,    0.423, 6000.128,    0.003
6001.152,    0.487, 6001.152,   -0.002
6002.176,    0.385, 6002.176,    0.005
6003.200,    0.461, 6003.200,   -0.000
6004.224,    0.453, 6004.224,    0.001
6005.248,    0.481, 6005.248,   -0.001
6006.272,    0.473, 6006.272,   -0.001
6007.296,    0.458, 6007.296,    0.000
6008.320,    0.469, 6008.320,   -0.000
6009.344,    0.433, 6009.344,    0.001
6010.368,    0.462, 6010.368,   -0.000
6011.392,    0.326, 6011.392,    0.010
6012.416,    0.433, 6012.416,    0.002
6013.440,    0.287, 6013.440,    0.013
6014.464,    0.438, 6014.464,    0.002
6015.488,    0.411, 6015.488,    0.004
6016.512,    0.412, 6016.512,    0.004
6017.536,    0.374, 6017.536,    0.006
6018.560,    0.416, 6018.560,    0.003
6019.584,    0.372, 6019.584,    0.007
6020.608,    0.360, 6020.608,    0.007
6021.632,    0.348, 6021.632,    0.008
6022.656,    0.349, 6022.656,    0.009
6023.680,    0.319, 6023.680,    0.011
6024.704,    0.311, 6024.704,    0.011
6025.728,    0.311, 6025.728,    0.011
6026.752,    0.276, 6026.752,    0.013
6027.776,    0.279, 6027.776,    0.014
6028.800,    0.225, 6028.800,    0.018
6029.824,    0.266, 6029.824,    0.014
6030.848,    0.222, 6030.848,    0.018
6031.872,    0.240, 6031.872,    0.016
6032.896,    0.224, 6032.896,    0.018
6033.920,    0.208, 6033.920,    0.019
6034.944,    0.189, 6034.944,    0.020
6035.968,    0.186, 6035.968,    0.020
6036.992,    0.175, 6036.992,    0.021
6038.016,    0.175, 6038.016,    0.021
6039.040,    0.172, 6039.040,    0.021
6040.064,    0.163, 6040.064,    0.022
6041.088,    0.171, 6041.088,    0.021
6042.112,    0.149, 6042.112,    0.023
6043.136,    0.163, 6043.136,    0.022
6044.160,    0.156, 6044.160,    0.023
6045.184,    0.158, 6045.184,    0.023
6046.208,    0.185, 6046.208,    0.021
6047.232,    0.184, 6047.232,    0.021
6048.256,    0.183, 6048.256,    0.021
6049.280,    0.189, 6049.280,    0.021
6050.304,    0.216, 6050.304,    0.018
6051.328,    0.215, 6051.328,    0.018
6052.352,    0.227, 6052.352,    0.018
6053.376,    0.233, 6053.376,    0.017
6054.400,    0.253, 6054.400,    0.015
6055.424,    0.236, 6055.424,    0.017
6056.448,    0.271, 6056.448,    0.014
6057.472,    0.247, 6057.472,    0.016
6058.496,    0.260, 6058.496,    0.015
6059.520,    0.222, 6059.520,    0.018
6060.544,    0.289, 6060.544,    0.013
6061.568,    0.310, 6061.568,    0.012
6062.592,    0.342, 6062.592,    0.010
6063.616,    0.328, 6063.616,    0.011
6064.640,    0.337, 6064.640,    0.010
6065.664,    0.364, 6065.664,    0.008
6066.688,    0.370, 6066.688,    0.008
6067.712,    0.341, 6067.712,    0.009
6068.736,    0.400, 6068.736,    0.005
6069.760,    0.382, 6069.760,    0.007
6070.784,    0.407, 6070.784,    0.005
6071.808,    0.399, 6071.808,    0.006
6072.832,    0.346, 6072.832,    0.009
6073.856,    0.426, 6073.856,    0.003
6074.880,    0.312, 6074.880,    0.012
6075.904,    0.436, 6075.904,    0.003
6076.928,    0.362, 6076.928,    0.009
6077.952,    0.435, 6077.952,    0.003
6078.976,    0.410, 6078.976,    0.005
6080.000,    0.443, 6080.000,    0.002
6081.024,    0.386, 6081.024,    0.006
6082.048,    0.409, 6082.048,    0.004
6083.072,    0.397, 6083.072,    0.006
6084.096,    0.373, 6084.096,    0.008
6085.120,    0.417, 6085.120,    0.004
6086.144,    0.412, 6086.144,    0.005
6087.168,    0.418, 6087.168,    0.005
6088.192,    0.386, 6088.192,    0.006
6089.216,    0.403, 6089.216,    0.005
6090.240,    0.328, 6090.240,    0.011
6091.264,    0.403, 6091.264,    0.005
6092.288,    0.316, 6092.288,    0.012
6093.312,    0.205, 6093.312,    0.020
6094.336,    0.391, 6094.336,    0.006
6095.360,    0.401, 6095.360,    0.006
6096.384,    0.329, 6096.384,    0.011
6097.408,    0.370, 6097.408,    0.008
6098.432,    0.358, 6098.432,    0.009
6099.456,    0.358, 6099.456,    0.009
6100.480,    0.355, 6100.480,    0.009
6101.504,    0.349, 6101.504,    0.009
6102.528,    0.347, 6102.528,    0.010
6103.552,    0.324, 6103.552,    0.011
6104.576,    0.345, 6104.576,    0.010
6105.600,    0.270, 6105.600,    0.015
6106.624,    0.340, 6106.624,    0.010
6107.648,    0.248, 6107.648,    0.017
6108.672,    0.331, 6108.672,    0.011
6109.696,    0.281, 6109.696,    0.015
6110.720,    0.296, 6110.720,    0.014
6111.744,    0.262, 6111.744,    0.016
6112.768,    0.271, 6112.768,    0.015
6113.792,    0.272, 6113.792,    0.015
6114.816,    0.263, 6114.816,    0.016
6115.840,    0.274, 6115.840,    0.015
6116.864,    0.276, 6116.864,    0.015
6117.888,    0.287, 6117.888,    0.014
6118.912,    0.253, 6118.912,    0.017
6119.935,    0.282, 6119.935,    0.015
6120.960,    0.224, 6120.960,    0.018
6121.984,    0.245, 6121.984,    0.017
6123.008,    0.217, 6123.008,    0.019
6124.032,    0.244, 6124.032,    0.017
6125.056,    0.234, 6125.056,    0.018
6126.080,    0.247, 6126.080,    0.017
6127.104,    0.254, 6127.104,    0.017
6128.128,    0.264, 6128.128,    0.016
6129.152,    0.260, 6129.152,    0.016
6130.176,    0.270, 6130.176,    0.016
6131.200,    0.262, 6131.200,    0.016
6132.224,    0.286, 6132.224,    0.014
6133.248,    0.181, 6133.248,    0.022
6134.272,    0.298, 6134.272,    0.014
6135.296,    0.300, 6135.296,    0.014
6136.320,    0.274, 6136.320,    0.015
6137.344,    0.292, 6137.344,    0.014
6138.368,    0.250, 6138.368,    0.017
6139.392,    0.321, 6139.392,    0.012
6140.416,    0.281, 6140.416,    0.015
6141.440,    0.340, 6141.440,    0.011
6142.464,    0.293, 6142.464,    0.015
6143.488,    0.360, 6143.488,    0.009
6144.512,    0.340, 6144.512,    0.011
6145.536,    0.387, 6145.536,    0.007
6146.560,    0.341, 6146.560,    0.011
6147.584,    0.377, 6147.584,    0.008
6148.608,    0.388, 6148.608,    0.007
6149.632,    0.377, 6149.632,    0.008
6150.656,    0.376, 6150.656,    0.008
6151.680,    0.360, 6151.680,    0.008
6152.704,    0.389, 6152.704,    0.007
6153.728,    0.266, 6153.728,    0.016
6154.752,    0.382, 6154.752,    0.008
6155.776,    0.343, 6155.776,    0.011
6156.800,    0.382, 6156.800,    0.008
6157.824,    0.362, 6157.824,    0.009
6158.848,    0.405, 6158.848,    0.006
6159.872,    0.392, 6159.872,    0.007
6160.896,    0.399, 6160.896,    0.007
6161.920,    0.389, 6161.920,    0.007
6162.944,    0.407, 6162.944,    0.006
6163.968,    0.379, 6163.968,    0.008
6164.992,    0.376, 6164.992,    0.008
6166.016,    0.357, 6166.016,    0.010
6167.040,    0.360, 6167.040,    0.009
6168.064,    0.359, 6168.064,    0.010
6169.088,    0.295, 6169.088,    0.014
6170.112,    0.387, 6170.112,    0.007
6171.136,    0.301, 6171.136,    0.014
6172.160,    0.367, 6172.160,    0.009
6173.184,    0.344, 6173.184,    0.011
6174.208,    0.344, 6174.208,    0.011
6175.232,    0.325, 6175.232,    0.012
6176.256,    0.345, 6176.256,    0.011
6177.280,    0.297, 6177.280,    0.015
6178.304,    0.344, 6178.304,    0.011
6179.328,    0.331, 6179.328,    0.012
6180.352,    0.329, 6180.352,    0.012
6181.376,    0.343, 6181.376,    0.011
6182.400,    0.320, 6182.400,    0.012
6183.424,    0.314, 6183.424,    0.013
6184.448,    0.243, 6184.448,    0.018
6185.472,    0.267, 6185.472,    0.017
6186.496,    0.253, 6186.496,    0.018
6187.520,    0.309, 6187.520,    0.014
6188.544,    0.232, 6188.544,    0.019
6189.568,    0.311, 6189.568,    0.013
6190.592,    0.135, 6190.592,    0.027
6191.616,    0.325, 6191.616,    0.013
6192.640,    0.298, 6192.640,    0.014
6193.664,    0.308, 6193.664,    0.014
6194.688,    0.316, 6194.688,    0.013
6195.712,    0.310, 6195.712,    0.014
6196.736,    0.293, 6196.736,    0.015
6197.760,    0.307, 6197.760,    0.014
6198.784,    0.300, 6198.784,    0.014
6199.808,    0.253, 6199.808,    0.018
6200.832,    0.330, 6200.832,    0.012
6201.856,    0.245, 6201.856,    0.019
6202.880,    0.323, 6202.880,    0.013
6203.904,    0.275, 6203.904,    0.016
6204.928,    0.317, 6204.928,    0.013
6205.952,    0.323, 6205.952,    0.013
6206.976,    0.351, 6206.976,    0.011
6208.000,    0.331, 6208.000,    0.013
6209.024,    0.345, 6209.024,    0.011
6210.048,    0.342, 6210.048,    0.011
6211.072,    0.328, 6211.072,    0.013
6212.096,    0.363, 6212.096,    0.010
6213.120,    0.361, 6213.120,    0.010
6214.144,    0.376, 6214.144,    0.009
6215.168,    0.323, 6215.168,    0.012
6216.192,    0.361, 6216.192,    0.010
6217.216,    0.279, 6217.216,    0.016
6218.240,    0.354, 6218.240,    0.011
6219.264,    0.338, 6219.264,    0.012
6220.288,    0.400, 6220.288,    0.007
6221.312,    0.340, 6221.312,    0.012
6222.336,    0.340, 6222.336,    0.011
6223.360,    0.337, 6223.360,    0.012
6224.384,    0.377, 6224.384,    0.009
6225.408,    0.348, 6225.408,    0.011
6226.432,    0.388, 6226.432,    0.008
6227.456,    0.367, 6227.456,    0.010
6228.480,    0.375, 6228.480,    0.009
6229.504,    0.365, 6229.504,    0.010
6230.528,    0.367, 6230.528,    0.009
6231.552,    0.370, 6231.552,    0.010
6232.576,    0.295, 6232.576,    0.015
6233.600,    0.329, 6233.600,    0.013
6234.624,    0.289, 6234.624,    0.016
6235.648,    0.339, 6235.648,    0.012
6236.672,    0.331, 6236.672,    0.013
6237.696,    0.341, 6237.696,    0.012
6238.720,    0.337, 6238.720,    0.013
6239.744,    0.211, 6239.744,    0.022
6240.768,    0.346, 6240.768,    0.012
6241.792,    0.387, 6241.792,    0.009
6242.816,    0.345, 6242.816,    0.012
6243.840,    0.353, 6243.840,    0.011
6244.864,    0.352, 6244.864,    0.011
6245.888,    0.317, 6245.888,    0.014
6246.912,    0.388, 6246.912,    0.008
6247.936,    0.256, 6247.936,    0.018
6248.960,    0.351, 6248.960,    0.011
6249.984,    0.307, 6249.984,    0.015
6251.008,    0.341, 6251.008,    0.012
6252.032,    0.294, 6252.032,    0.016
6253.056,    0.355, 6253.056,    0.011
6254.080,    0.338, 6254.080,    0.013
6255.104,    0.352, 6255.104,    0.011
6256.128,    0.337, 6256.128,    0.012
6257.152,    0.335, 6257.152,    0.013
6258.176,    0.365, 6258.176,    0.011
6259.200,    0.358, 6259.200,    0.011
6260.224,    0.350, 6260.224,    0.012
6261.248,    0.357, 6261.248,    0.011
6262.272,    0.357, 6262.272,    0.011
6263.296,    0.299, 6263.296,    0.015
6264.320,    0.364, 6264.320,    0.011
6265.344,    0.304, 6265.344,    0.015
6266.368,    0.388, 6266.368,    0.009
6267.392,    0.312, 6267.392,    0.015
6268.416,    0.343, 6268.416,    0.012
6269.440,    0.343, 6269.440,    0.013
6270.464,    0.380, 6270.464,    0.010
6271.488,    0.351, 6271.488,    0.012
6272.512,    0.376, 6272.512,    0.010
6273.536,    0.368, 6273.536,    0.011
6274.560,    0.377, 6274.560,    0.010
6275.584,    0.348, 6275.584,    0.012
6276.608,    0.383, 6276.608,    0.009
6277.632,    0.363, 6277.632,    0.011
6278.656,    0.315, 6278.656,    0.014
6279.680,    0.327, 6279.680,    0.013
6280.704,    0.277, 6280.704,    0.017
6281.728,    0.362, 6281.728,    0.011
6282.752,    0.299, 6282.752,    0.016
6283.776,    0.352, 6283.776,    0.012
6284.800,    0.335, 6284.800,    0.013
6285.824,    0.367, 6285.824,    0.011
6286.848,    0.321, 6286.848,    0.014
6287.872,    0.182, 6287.872,    0.024
6288.896,    0.362, 6288.896,    0.011
6289.920,    0.366, 6289.920,    0.011
6290.944,    0.372, 6290.944,    0.011
6291.968,    0.376, 6291.968,    0.010
6292.992,    0.392, 6292.992,    0.009
6294.016,    0.336, 6294.016,    0.012
6295.040,    0.354, 6295.040,    0.012
6296.064,    0.302, 6296.064,    0.015
6297.088,    0.344, 6297.088,    0.013
6298.112,    0.299, 6298.112,    0.016
6299.136,    0.369, 6299.136,    0.011
6300.160,    0.366, 6300.160,    0.011
6301.184,    0.396, 6301.184,    0.009
6302.208,    0.355, 6302.208,    0.012
6303.232,    0.373, 6303.232,    0.011
6304.256,    0.383, 6304.256,    0.010
6305.280,    0.373, 6305.280,    0.011
6306.304,    0.370, 6306.304,    0.011
6307.328,    0.396, 6307.328,    0.009
6308.352,    0.388, 6308.352,    0.009
6309.376,    0.370, 6309.376,    0.010
6310.400,    0.405, 6310.400,    0.008
6311.424,    0.324, 6311.424,    0.014
6312.448,    0.401, 6312.448,    0.009
6313.472,    0.321, 6313.472,    0.015
6314.496,    0.339, 6314.496,    0.013
6315.520,    0.351, 6315.520,    0.012
6316.544,    0.405, 6316.544,    0.008
6317.568,    0.377, 6317.568,    0.010
6318.592,    0.398, 6318.592,    0.009
6319.616,    0.369, 6319.616,    0.011
6320.640,    0.381, 6320.640,    0.010
6321.664,    0.386, 6321.664,    0.010
6322.688,    0.387, 6322.688,    0.010
6323.712,    0.362, 6323.712,    0.012
6324.736,    0.386, 6324.736,    0.010
6325.760,    0.375, 6325.760,    0.011
6326.784,    0.287, 6326.784,    0.017
6327.808,    0.365, 6327.808,    0.012
6328.832,    0.311, 6328.832,    0.015
6329.856,    0.367, 6329.856,    0.011
6330.880,    0.319, 6330.880,    0.015
6331.904,    0.361, 6331.904,    0.012
6332.928,    0.311, 6332.928,    0.015
6333.952,    0.340, 6333.952,    0.013
6334.976,    0.357, 6334.976,    0.012
6336.000,    0.375, 6336.000,    0.011
6337.024,    0.322, 6337.024,    0.015
6338.048,    0.339, 6338.048,    0.013
6339.072,    0.349, 6339.072,    0.013
6340.096,    0.376, 6340.096,    0.010
6341.120,    0.352, 6341.120,    0.012
6342.144,    0.315, 6342.144,    0.015
6343.168,    0.360, 6343.168,    0.012
6344.192,    0.271, 6344.192,    0.018
6345.216,    0.355, 6345.216,    0.012
6346.240,    0.322, 6346.240,    0.015
6347.264,    0.365, 6347.264,    0.011
6348.288,    0.326, 6348.288,    0.014
6349.312,    0.336, 6349.312,    0.014
6350.336,    0.336, 6350.336,    0.013
6351.360,    0.370, 6351.360,    0.011
6352.384,    0.361, 6352.384,    0.011
6353.408,    0.353, 6353.408,    0.012
6354.432,    0.361, 6354.432,    0.012
6355.456,    0.368, 6355.456,    0.011
6356.480,    0.345, 6356.480,    0.013
6357.504,    0.338, 6357.504,    0.013
6358.528,    0.371, 6358.528,    0.011
6359.552,    0.305, 6359.552,    0.016
6360.576,    0.375, 6360.576,    0.010
6361.600,    0.327, 6361.600,    0.014
6362.624,    0.387, 6362.624,    0.009
6363.648,    0.376, 6363.648,    0.011
6364.672,    0.373, 6364.672,    0.011
6365.696,    0.358, 6365.696,    0.012
6366.720,    0.387, 6366.720,    0.009
6367.744,    0.387, 6367.744,    0.009
6368.768,    0.374, 6368.768,    0.010
6369.792,    0.376, 6369.792,    0.011
6370.816,    0.414, 6370.816,    0.007
6371.840,    0.385, 6371.840,    0.010
6372.864,    0.351, 6372.864,    0.011
6373.888,    0.388, 6373.888,    0.009
6374.912,    0.309, 6374.912,    0.015
6375.936,    0.391, 6375.936,    0.009
6376.960,    0.317, 6376.960,    0.015
6377.984,    0.390, 6377.984,    0.009
6379.008,    0.356, 6379.008,    0.012
6380.032,    0.411, 6380.032,    0.008
6381.056,    0.376, 6381.056,    0.010
6382.080,    0.387, 6382.080,    0.009
6383.105,    0.372, 6383.105,    0.010
6384.128,    0.338, 6384.128,    0.012
6385.152,    0.207, 6385.152,    0.022
6386.176,    0.415, 6386.176,    0.007
6387.200,    0.382, 6387.200,    0.010
6388.224,    0.385, 6388.224,    0.009
6389.248,    0.364, 6389.248,    0.011
6390.272,    0.297, 6390.272,    0.015
6391.296,    0.392, 6391.296,    0.009
6392.320,    0.322, 6392.320,    0.014
6393.344,    0.349, 6393.344,    0.012
6394.368,    0.343, 6394.368,    0.013
6395.392,    0.364, 6395.392,    0.011
6396.416,    0.290, 6396.416,    0.016
6397.440,    0.386, 6397.440,    0.009
6398.464,    0.352, 6398.464,    0.011
6399.488,    0.383, 6399.488,    0.009
6400.512,    0.363, 6400.512,    0.011
6401.536,    0.367, 6401.536,    0.011
6402.560,    0.341, 6402.560,    0.012
6403.584,    0.358, 6403.584,    0.011
6404.608,    0.342, 6404.608,    0.012
6405.632,    0.268, 6405.632,    0.017
6406.656,    0.352, 6406.656,    0.011
6407.680,    0.251, 6407.680,    0.019
6408.704,    0.342, 6408.704,    0.012
6409.728,    0.322, 6409.728,    0.014
6410.752,    0.338, 6410.752,    0.012
6411.776,    0.330, 6411.776,    0.013
6412.800,    0.346, 6412.800,    0.012
6413.824,    0.341, 6413.824,    0.012
6414.848,    0.338, 6414.848,    0.012
6415.872,    0.334, 6415.872,    0.013
6416.896,    0.352, 6416.896,    0.011
6417.920,    0.370, 6417.920,    0.010
6418.944,    0.327, 6418.944,    0.013
6419.968,    0.344, 6419.968,    0.012
6420.992,    0.312, 6420.992,    0.014
6422.016,    0.381, 6422.016,    0.009
6423.040,    0.274, 6423.040,    0.017
6424.064,    0.384, 6424.064,    0.009
6425.088,    0.314, 6425.088,    0.014
6426.112,    0.372, 6426.112,    0.010
6427.136,    0.345, 6427.136,    0.012
6428.160,    0.358, 6428.160,    0.011
6429.184,    0.333, 6429.184,    0.013
6430.208,    0.340, 6430.208,    0.012
6431.232,    0.338, 6431.232,    0.012
6432.256,    0.336, 6432.256,    0.012
6433.280,    0.361, 6433.280,    0.010
6434.304,    0.304, 6434.304,    0.015
6435.328,    0.384, 6435.328,    0.009
6436.352,    0.321, 6436.352,    0.013
6437.376,    0.378, 6437.376,    0.009
6438.400,    0.291, 6438.400,    0.015
6439.424,    0.389, 6439.424,    0.008
6440.448,    0.312, 6440.448,    0.014
6441.472,    0.392, 6441.472,    0.008
6442.496,    0.368, 6442.496,    0.010
6443.520,    0.351, 6443.520,    0.011
6444.544,    0.368, 6444.544,    0.010
6445.568,    0.382, 6445.568,    0.008
6446.592,    0.347, 6446.592,    0.011
6447.616,    0.376, 6447.616,    0.009
6448.640,    0.380, 6448.640,    0.009
6449.664,    0.374, 6449.664,    0.009
6450.688,    0.372, 6450.688,    0.010
6451.712,    0.337, 6451.712,    0.011
6452.736,    0.388, 6452.736,    0.008
6453.760,    0.292, 6453.760,    0.015
6454.784,    0.329, 6454.784,    0.013
6455.808,    0.307, 6455.808,    0.014
6456.832,    0.383, 6456.832,    0.008
6457.856,    0.322, 6457.856,    0.013
6458.880,    0.356, 6458.880,    0.011
6459.904,    0.334, 6459.904,    0.012
6460.928,    0.351, 6460.928,    0.010
6461.952,    0.340, 6461.952,    0.011
6462.976,    0.339, 6462.976,    0.012
6464.000,    0.354, 6464.000,    0.011
6465.024,    0.352, 6465.024,    0.011
6466.048,    0.340, 6466.048,    0.012
6467.072,    0.330, 6467.072,    0.012
6468.096,    0.366, 6468.096,    0.010
6469.120,    0.266, 6469.120,    0.017
6470.144,    0.349, 6470.144,    0.011
6471.168,    0.301, 6471.168,    0.015
6472.192,    0.343, 6472.192,    0.011
6473.216,    0.324, 6473.216,    0.013
6474.240,    0.353, 6474.240,    0.010
6475.264,    0.313, 6475.264,    0.013
6476.288,    0.370, 6476.288,    0.009
6477.312,    0.351, 6477.312,    0.011
6478.336,    0.289, 6478.336,    0.015
6479.360,    0.377, 6479.360,    0.009
6480.384,    0.359, 6480.384,    0.010
6481.408,    0.374, 6481.408,    0.009
6482.432,    0.209, 6482.432,    0.021
6483.456,    0.394, 6483.456,    0.007
6484.480,    0.331, 6484.480,    0.011
6485.504,    0.396, 6485.504,    0.007
6486.528,    0.300, 6486.528,    0.015
6487.552,    0.411, 6487.552,    0.006
6488.576,    0.372, 6488.576,    0.009
6489.600,    0.382, 6489.600,    0.008
6490.624,    0.338, 6490.624,    0.011
6491.648,    0.405, 6491.648,    0.006
6492.672,    0.375, 6492.672,    0.009
6493.696,    0.403, 6493.696,    0.007
6494.720,    0.399, 6494.720,    0.007
6495.744,    0.410, 6495.744,    0.006
6496.768,    0.421, 6496.768,    0.005
6497.792,    0.284, 6497.792,    0.014
6498.816,    0.406, 6498.816,    0.006
6499.840,    0.361, 6499.840,    0.009
6500.864,    0.411, 6500.864,    0.006
6501.888,    0.283, 6501.888,    0.015
6502.912,    0.418, 6502.912,    0.005
6503.936,    0.338, 6503.936,    0.012
6504.960,    0.370, 6504.960,    0.009
6505.984,    0.350, 6505.984,    0.010
6507.008,    0.381, 6507.008,    0.008
6508.032,    0.351, 6508.032,    0.011
6509.056,    0.374, 6509.056,    0.009
6510.080,    0.356, 6510.080,    0.010
6511.104,    0.359, 6511.104,    0.010
6512.128,    0.359, 6512.128,    0.010
6513.152,    0.348, 6513.152,    0.010
6514.176,    0.316, 6514.176,    0.013
6515.200,    0.304, 6515.200,    0.013
6516.224,    0.336, 6516.224,    0.011
6517.248,    0.266, 6517.248,    0.016
6518.273,    0.300, 6518.273,    0.014
6519.296,    0.261, 6519.296,    0.017
6520.320,    0.334, 6520.320,    0.011
6521.344,    0.286, 6521.344,    0.015
6522.368,    0.313, 6522.368,    0.013
6523.392,    0.276, 6523.392,    0.015
6524.416,    0.292, 6524.416,    0.014
6525.440,    0.244, 6525.440,    0.018
6526.464,    0.292, 6526.464,    0.014
6527.488,    0.285, 6527.488,    0.015
6528.512,    0.280, 6528.512,    0.015
6529.536,    0.294, 6529.536,    0.014
6530.560,    0.272, 6530.560,    0.015
6531.584,    0.251, 6531.584,    0.018
6532.608,    0.237, 6532.608,    0.018
6533.632,    0.304, 6533.632,    0.013
6534.656,    0.240, 6534.656,    0.018
6535.680,    0.286, 6535.680,    0.014
6536.704,    0.255, 6536.704,    0.017
6537.728,    0.278, 6537.728,    0.015
6538.752,    0.303, 6538.752,    0.013
6539.776,    0.301, 6539.776,    0.013
6540.800,    0.294, 6540.800,    0.014
6541.824,    0.308, 6541.824,    0.013
6542.848,    0.333, 6542.848,    0.011
6543.872,    0.317, 6543.872,    0.012
6544.896,    0.328, 6544.896,    0.011
6545.920,    0.335, 6545.920,    0.011
6546.944,    0.343, 6546.944,    0.010
6547.968,    0.244, 6547.968,    0.017
6548.992,    0.310, 6548.992,    0.012
6550.016,    0.238, 6550.016,    0.018
6551.040,    0.353, 6551.040,    0.009
6552.064,    0.289, 6552.064,    0.014
6553.088,    0.384, 6553.088,    0.007
6554.112,    0.342, 6554.112,    0.010
6555.136,    0.367, 6555.136,    0.008
6556.160,    0.336, 6556.160,    0.011
6557.184,    0.367, 6557.184,    0.008
6558.208,    0.359, 6558.208,    0.009
6559.232,    0.352, 6559.232,    0.009
6560.256,    0.369, 6560.256,    0.008
6561.280,    0.367, 6561.280,    0.008
6562.304,    0.390, 6562.304,    0.007
6563.328,    0.308, 6563.328,    0.012
6564.352,    0.377, 6564.352,    0.008
6565.376,    0.274, 6565.376,    0.015
6566.400,    0.393, 6566.400,    0.007
6567.424,    0.312, 6567.424,    0.013
6568.448,    0.396, 6568.448,    0.006
6569.472,    0.353, 6569.472,    0.009
6570.496,    0.376, 6570.496,    0.008
6571.520,    0.353, 6571.520,    0.009
6572.544,    0.376, 6572.544,    0.008
6573.568,    0.351, 6573.568,    0.009
6574.592,    0.371, 6574.592,    0.007
6575.616,    0.343, 6575.616,    0.010
6576.640,    0.363, 6576.640,    0.008
6577.664,    0.348, 6577.664,    0.009
6578.688,    0.275, 6578.688,    0.014
6579.712,    0.180, 6579.712,    0.022
6580.736,    0.286, 6580.736,    0.014
6581.760,    0.361, 6581.760,    0.009
6582.784,    0.296, 6582.784,    0.014
6583.808,    0.345, 6583.808,    0.010
6584.832,    0.310, 6584.832,    0.012
6585.856,    0.343, 6585.856,    0.010
6586.880,    0.296, 6586.880,    0.013
6587.904,    0.309, 6587.904,    0.012
6588.928,    0.312, 6588.928,    0.012
6589.952,    0.314, 6589.952,    0.011
6590.976,    0.301, 6590.976,    0.013
6592.000,    0.301, 6592.000,    0.012
6593.024,    0.281, 6593.024,    0.014
6594.048,    0.266, 6594.048,    0.014
6595.072,    0.281, 6595.072,    0.014
6596.096,    0.238, 6596.096,    0.017
6597.120,    0.305, 6597.120,    0.012
6598.144,    0.280, 6598.144,    0.014
6599.168,    0.276, 6599.168,    0.014
6600.192,    0.272, 6600.192,    0.015
6601.216,    0.272, 6601.216,    0.014
6602.240,    0.262, 6602.240,    0.015
6603.264,    0.307, 6603.264,    0.012
6604.288,    0.289, 6604.288,    0.013
6605.312,    0.298, 6605.312,    0.013
6606.336,    0.281, 6606.336,    0.014
6607.360,    0.266, 6607.360,    0.015
6608.384,    0.261, 6608.384,    0.015
6609.408,    0.260, 6609.408,    0.015
6610.432,    0.293, 6610.432,    0.013
6611.456,    0.222, 6611.456,    0.018
6612.480,    0.327, 6612.480,    0.011
6613.504,    0.256, 6613.504,    0.016
6614.528,    0.311, 6614.528,    0.012
6615.552,    0.313, 6615.552,    0.012
6616.576,    0.332, 6616.576,    0.010
6617.600,    0.299, 6617.600,    0.013
6618.624,    0.314, 6618.624,    0.011
6619.648,    0.314, 6619.648,    0.011
6620.672,    0.305, 6620.672,    0.012
6621.696,    0.319, 6621.696,    0.011
6622.720,    0.333, 6622.720,    0.010
6623.744,    0.328, 6623.744,    0.010
6624.768,    0.363, 6624.768,    0.007
6625.792,    0.353, 6625.792,    0.008
6626.816,    0.268, 6626.816,    0.014
6627.840,    0.359, 6627.840,    0.008
6628.864,    0.230, 6628.864,    0.018
6629.888,    0.357, 6629.888,    0.008
6630.912,    0.323, 6630.912,    0.011
6631.936,    0.357, 6631.936,    0.008
6632.960,    0.350, 6632.960,    0.009
6633.984,    0.330, 6633.984,    0.010
6635.008,    0.347, 6635.008,    0.009
6636.032,    0.346, 6636.032,    0.009
6637.056,    0.349, 6637.056,    0.008
6638.080,    0.357, 6638.080,    0.008
6639.104,    0.340, 6639.104,    0.009
6640.128,    0.351, 6640.128,    0.008
6641.152,    0.352, 6641.152,    0.008
6642.176,    0.278, 6642.176,    0.013
6643.200,    0.334, 6643.200,    0.009
6644.224,    0.259, 6644.224,    0.015
6645.248,    0.334, 6645.248,    0.009
6646.272,    0.282, 6646.272,    0.013
6647.296,    0.334, 6647.296,    0.009
6648.320,    0.298, 6648.320,    0.012
6649.344,    0.328, 6649.344,    0.010
6650.368,    0.296, 6650.368,    0.012
6651.392,    0.325, 6651.392,    0.010
6652.416,    0.316, 6652.416,    0.011
6653.440,    0.306, 6653.440,    0.011
6654.464,    0.292, 6654.464,    0.012
6655.488,    0.312, 6655.488,    0.011
6656.512,    0.311, 6656.512,    0.011
6657.536,    0.253, 6657.536,    0.015
