# Temperatura celda = 26.9ยบ, Temperatura Laser = 23.926ยบ, Frecuencia Rampa = 77.14 Hz, Amplitud = 78 mVpp, Offset = -3.9 mV 
t1 [us]      ,ch1 [V]     ,t2 [us]      ,ch2 [V]     
1881.280,   -0.066, 1881.280,    0.026
1882.304,   -0.066, 1882.304,    0.026
1883.328,   -0.068, 1883.328,    0.026
1884.352,   -0.067, 1884.352,    0.026
1885.376,   -0.065, 1885.376,    0.026
1886.400,   -0.074, 1886.400,    0.026
1887.424,   -0.063, 1887.424,    0.026
1888.448,   -0.065, 1888.448,    0.026
1889.472,   -0.066, 1889.472,    0.026
1890.496,   -0.062, 1890.496,    0.026
1891.520,   -0.066, 1891.520,    0.026
1892.544,   -0.069, 1892.544,    0.026
1893.568,   -0.070, 1893.568,    0.026
1894.592,   -0.067, 1894.592,    0.026
1895.616,   -0.066, 1895.616,    0.026
1896.640,   -0.065, 1896.640,    0.026
1897.664,   -0.067, 1897.664,    0.026
1898.688,   -0.066, 1898.688,    0.026
1899.712,   -0.069, 1899.712,    0.026
1900.736,   -0.067, 1900.736,    0.026
1901.760,   -0.064, 1901.760,    0.026
1902.784,   -0.068, 1902.784,    0.026
1903.808,   -0.066, 1903.808,    0.026
1904.832,   -0.071, 1904.832,    0.026
1905.856,   -0.065, 1905.856,    0.026
1906.880,   -0.068, 1906.880,    0.026
1907.904,   -0.069, 1907.904,    0.026
1908.928,   -0.070, 1908.928,    0.026
1909.952,   -0.068, 1909.952,    0.026
1910.976,   -0.066, 1910.976,    0.026
1912.000,   -0.070, 1912.000,    0.026
1913.024,   -0.069, 1913.024,    0.026
1914.048,   -0.068, 1914.048,    0.026
1915.072,   -0.064, 1915.072,    0.026
1916.096,   -0.070, 1916.096,    0.026
1917.120,   -0.064, 1917.120,    0.027
1918.144,   -0.069, 1918.144,    0.027
1919.168,   -0.070, 1919.168,    0.027
1920.192,   -0.066, 1920.192,    0.027
1921.216,   -0.064, 1921.216,    0.027
1922.240,   -0.068, 1922.240,    0.027
1923.264,   -0.065, 1923.264,    0.027
1924.288,   -0.071, 1924.288,    0.027
1925.312,   -0.068, 1925.312,    0.027
1926.336,   -0.067, 1926.336,    0.027
1927.360,   -0.070, 1927.360,    0.027
1928.384,   -0.068, 1928.384,    0.027
1929.408,   -0.071, 1929.408,    0.027
1930.432,   -0.070, 1930.432,    0.027
1931.456,   -0.065, 1931.456,    0.027
1932.480,   -0.070, 1932.480,    0.027
1933.504,   -0.064, 1933.504,    0.027
1934.528,   -0.069, 1934.528,    0.027
1935.552,   -0.075, 1935.552,    0.027
1936.576,   -0.067, 1936.576,    0.027
1937.600,   -0.069, 1937.600,    0.027
1938.624,   -0.071, 1938.624,    0.027
1939.648,   -0.068, 1939.648,    0.027
1940.672,   -0.068, 1940.672,    0.027
1941.696,   -0.069, 1941.696,    0.027
1942.720,   -0.068, 1942.720,    0.027
1943.744,   -0.067, 1943.744,    0.027
1944.768,   -0.068, 1944.768,    0.027
1945.792,   -0.068, 1945.792,    0.027
1946.816,   -0.070, 1946.816,    0.027
1947.840,   -0.070, 1947.840,    0.027
1948.864,   -0.065, 1948.864,    0.027
1949.888,   -0.069, 1949.888,    0.027
1950.912,   -0.073, 1950.912,    0.027
1951.936,   -0.070, 1951.936,    0.027
1952.960,   -0.069, 1952.960,    0.027
1953.984,   -0.069, 1953.984,    0.027
1955.008,   -0.073, 1955.008,    0.027
1956.032,   -0.065, 1956.032,    0.027
1957.056,   -0.067, 1957.056,    0.027
1958.080,   -0.069, 1958.080,    0.027
1959.104,   -0.071, 1959.104,    0.027
1960.128,   -0.069, 1960.128,    0.027
1961.152,   -0.070, 1961.152,    0.027
1962.176,   -0.063, 1962.176,    0.027
1963.200,   -0.069, 1963.200,    0.027
1964.224,   -0.073, 1964.224,    0.027
1965.248,   -0.069, 1965.248,    0.027
1966.272,   -0.066, 1966.272,    0.027
1967.296,   -0.069, 1967.296,    0.027
1968.320,   -0.066, 1968.320,    0.027
1969.344,   -0.065, 1969.344,    0.027
1970.368,   -0.069, 1970.368,    0.027
1971.392,   -0.067, 1971.392,    0.027
1972.416,   -0.072, 1972.416,    0.027
1973.440,   -0.068, 1973.440,    0.027
1974.464,   -0.073, 1974.464,    0.027
1975.488,   -0.068, 1975.488,    0.027
1976.512,   -0.068, 1976.512,    0.027
1977.536,   -0.071, 1977.536,    0.027
1978.560,   -0.070, 1978.560,    0.027
1979.584,   -0.073, 1979.584,    0.027
1980.608,   -0.071, 1980.608,    0.027
1981.632,   -0.068, 1981.632,    0.027
1982.656,   -0.070, 1982.656,    0.027
1983.680,   -0.071, 1983.680,    0.027
1984.704,   -0.071, 1984.704,    0.027
1985.728,   -0.069, 1985.728,    0.027
1986.752,   -0.069, 1986.752,    0.027
1987.776,   -0.070, 1987.776,    0.028
1988.800,   -0.070, 1988.800,    0.028
1989.824,   -0.067, 1989.824,    0.028
1990.848,   -0.070, 1990.848,    0.028
1991.872,   -0.069, 1991.872,    0.028
1992.896,   -0.073, 1992.896,    0.028
1993.920,   -0.068, 1993.920,    0.028
1994.944,   -0.070, 1994.944,    0.028
1995.968,   -0.073, 1995.968,    0.028
1996.992,   -0.070, 1996.992,    0.028
1998.016,   -0.070, 1998.016,    0.028
1999.040,   -0.074, 1999.040,    0.028
2000.064,   -0.073, 2000.064,    0.028
2001.088,   -0.070, 2001.088,    0.028
2002.112,   -0.073, 2002.112,    0.028
2003.136,   -0.070, 2003.136,    0.028
2004.160,   -0.070, 2004.160,    0.028
2005.184,   -0.074, 2005.184,    0.028
2006.208,   -0.072, 2006.208,    0.028
2007.232,   -0.069, 2007.232,    0.028
2008.256,   -0.070, 2008.256,    0.028
2009.280,   -0.069, 2009.280,    0.028
2010.304,   -0.069, 2010.304,    0.028
2011.328,   -0.069, 2011.328,    0.028
2012.352,   -0.071, 2012.352,    0.028
2013.376,   -0.069, 2013.376,    0.028
2014.400,   -0.070, 2014.400,    0.028
2015.424,   -0.073, 2015.424,    0.028
2016.448,   -0.074, 2016.448,    0.028
2017.472,   -0.072, 2017.472,    0.028
2018.496,   -0.073, 2018.496,    0.028
2019.520,   -0.066, 2019.520,    0.028
2020.544,   -0.070, 2020.544,    0.028
2021.568,   -0.070, 2021.568,    0.028
2022.592,   -0.072, 2022.592,    0.028
2023.616,   -0.070, 2023.616,    0.028
2024.640,   -0.074, 2024.640,    0.028
2025.664,   -0.073, 2025.664,    0.028
2026.688,   -0.077, 2026.688,    0.028
2027.712,   -0.073, 2027.712,    0.028
2028.736,   -0.073, 2028.736,    0.028
2029.760,   -0.075, 2029.760,    0.028
2030.784,   -0.071, 2030.784,    0.028
2031.808,   -0.078, 2031.808,    0.028
2032.832,   -0.073, 2032.832,    0.028
2033.856,   -0.073, 2033.856,    0.028
2034.880,   -0.076, 2034.880,    0.028
2035.904,   -0.076, 2035.904,    0.028
2036.928,   -0.074, 2036.928,    0.028
2037.952,   -0.075, 2037.952,    0.028
2038.976,   -0.072, 2038.976,    0.028
2040.000,   -0.072, 2040.000,    0.028
2041.024,   -0.069, 2041.024,    0.028
2042.048,   -0.076, 2042.048,    0.028
2043.072,   -0.072, 2043.072,    0.028
2044.096,   -0.070, 2044.096,    0.028
2045.120,   -0.076, 2045.120,    0.028
2046.144,   -0.074, 2046.144,    0.028
2047.168,   -0.072, 2047.168,    0.028
2048.192,   -0.071, 2048.192,    0.028
2049.216,   -0.073, 2049.216,    0.028
2050.240,   -0.074, 2050.240,    0.028
2051.264,   -0.073, 2051.264,    0.028
2052.288,   -0.076, 2052.288,    0.028
2053.312,   -0.074, 2053.312,    0.028
2054.336,   -0.076, 2054.336,    0.028
2055.360,   -0.069, 2055.360,    0.028
2056.384,   -0.072, 2056.384,    0.028
2057.408,   -0.076, 2057.408,    0.028
2058.432,   -0.074, 2058.432,    0.028
2059.456,   -0.074, 2059.456,    0.029
2060.480,   -0.076, 2060.480,    0.029
2061.504,   -0.075, 2061.504,    0.029
2062.528,   -0.073, 2062.528,    0.029
2063.552,   -0.075, 2063.552,    0.029
2064.576,   -0.074, 2064.576,    0.029
2065.600,   -0.076, 2065.600,    0.029
2066.624,   -0.078, 2066.624,    0.029
2067.648,   -0.075, 2067.648,    0.029
2068.672,   -0.074, 2068.672,    0.029
2069.696,   -0.074, 2069.696,    0.029
2070.720,   -0.076, 2070.720,    0.029
2071.744,   -0.075, 2071.744,    0.029
2072.768,   -0.075, 2072.768,    0.029
2073.792,   -0.077, 2073.792,    0.029
2074.816,   -0.073, 2074.816,    0.029
2075.840,   -0.075, 2075.840,    0.029
2076.864,   -0.078, 2076.864,    0.029
2077.888,   -0.078, 2077.888,    0.029
2078.912,   -0.073, 2078.912,    0.029
2079.936,   -0.074, 2079.936,    0.029
2080.960,   -0.077, 2080.960,    0.029
2081.984,   -0.073, 2081.984,    0.029
2083.008,   -0.076, 2083.008,    0.029
2084.032,   -0.076, 2084.032,    0.029
2085.056,   -0.075, 2085.056,    0.029
2086.080,   -0.077, 2086.080,    0.029
2087.104,   -0.078, 2087.104,    0.029
2088.128,   -0.080, 2088.128,    0.029
2089.152,   -0.075, 2089.152,    0.029
2090.176,   -0.082, 2090.176,    0.029
2091.200,   -0.071, 2091.200,    0.029
2092.224,   -0.074, 2092.224,    0.029
2093.248,   -0.068, 2093.248,    0.029
2094.272,   -0.074, 2094.272,    0.029
2095.296,   -0.077, 2095.296,    0.029
2096.320,   -0.079, 2096.320,    0.029
2097.344,   -0.077, 2097.344,    0.029
2098.368,   -0.076, 2098.368,    0.029
2099.392,   -0.079, 2099.392,    0.029
2100.416,   -0.079, 2100.416,    0.029
2101.440,   -0.077, 2101.440,    0.029
2102.464,   -0.076, 2102.464,    0.029
2103.488,   -0.073, 2103.488,    0.029
2104.512,   -0.074, 2104.512,    0.029
2105.536,   -0.075, 2105.536,    0.029
2106.560,   -0.075, 2106.560,    0.029
2107.584,   -0.074, 2107.584,    0.029
2108.608,   -0.072, 2108.608,    0.029
2109.632,   -0.076, 2109.632,    0.029
2110.656,   -0.076, 2110.656,    0.029
2111.680,   -0.069, 2111.680,    0.029
2112.704,   -0.080, 2112.704,    0.029
2113.728,   -0.076, 2113.728,    0.029
2114.752,   -0.075, 2114.752,    0.029
2115.776,   -0.075, 2115.776,    0.029
2116.800,   -0.080, 2116.800,    0.029
2117.824,   -0.075, 2117.824,    0.029
2118.848,   -0.078, 2118.848,    0.029
2119.872,   -0.080, 2119.872,    0.029
2120.896,   -0.079, 2120.896,    0.029
2121.920,   -0.081, 2121.920,    0.029
2122.944,   -0.074, 2122.944,    0.029
2123.968,   -0.073, 2123.968,    0.029
2124.992,   -0.078, 2124.992,    0.029
2126.016,   -0.079, 2126.016,    0.029
2127.040,   -0.076, 2127.040,    0.029
2128.064,   -0.076, 2128.064,    0.029
2129.088,   -0.078, 2129.088,    0.029
2130.112,   -0.076, 2130.112,    0.029
2131.136,   -0.080, 2131.136,    0.029
2132.160,   -0.080, 2132.160,    0.029
2133.184,   -0.077, 2133.184,    0.029
2134.208,   -0.075, 2134.208,    0.029
2135.232,   -0.080, 2135.232,    0.029
2136.256,   -0.081, 2136.256,    0.029
2137.280,   -0.080, 2137.280,    0.029
2138.304,   -0.081, 2138.304,    0.029
2139.328,   -0.082, 2139.328,    0.029
2140.352,   -0.083, 2140.352,    0.029
2141.376,   -0.079, 2141.376,    0.030
2142.400,   -0.079, 2142.400,    0.030
2143.424,   -0.084, 2143.424,    0.030
2144.448,   -0.080, 2144.448,    0.030
2145.472,   -0.080, 2145.472,    0.030
2146.496,   -0.083, 2146.496,    0.030
2147.520,   -0.082, 2147.520,    0.030
2148.544,   -0.083, 2148.544,    0.030
2149.568,   -0.076, 2149.568,    0.030
2150.592,   -0.079, 2150.592,    0.030
2151.616,   -0.083, 2151.616,    0.030
2152.640,   -0.081, 2152.640,    0.030
2153.664,   -0.079, 2153.664,    0.030
2154.688,   -0.081, 2154.688,    0.030
2155.712,   -0.080, 2155.712,    0.030
2156.736,   -0.080, 2156.736,    0.030
2157.760,   -0.084, 2157.760,    0.030
2158.784,   -0.083, 2158.784,    0.030
2159.808,   -0.084, 2159.808,    0.030
2160.832,   -0.079, 2160.832,    0.030
2161.856,   -0.083, 2161.856,    0.030
2162.880,   -0.081, 2162.880,    0.030
2163.904,   -0.080, 2163.904,    0.030
2164.928,   -0.084, 2164.928,    0.030
2165.952,   -0.082, 2165.952,    0.030
2166.976,   -0.078, 2166.976,    0.030
2168.000,   -0.081, 2168.000,    0.030
2169.024,   -0.085, 2169.024,    0.030
2170.048,   -0.080, 2170.048,    0.030
2171.072,   -0.080, 2171.072,    0.030
2172.096,   -0.083, 2172.096,    0.030
2173.120,   -0.082, 2173.120,    0.030
2174.144,   -0.081, 2174.144,    0.030
2175.168,   -0.082, 2175.168,    0.030
2176.192,   -0.083, 2176.192,    0.030
2177.216,   -0.082, 2177.216,    0.030
2178.240,   -0.085, 2178.240,    0.030
2179.264,   -0.081, 2179.264,    0.030
2180.288,   -0.086, 2180.288,    0.030
2181.312,   -0.085, 2181.312,    0.030
2182.336,   -0.083, 2182.336,    0.030
2183.360,   -0.081, 2183.360,    0.030
2184.384,   -0.081, 2184.384,    0.030
2185.408,   -0.089, 2185.408,    0.030
2186.432,   -0.086, 2186.432,    0.030
2187.456,   -0.080, 2187.456,    0.030
2188.480,   -0.087, 2188.480,    0.030
2189.504,   -0.084, 2189.504,    0.030
2190.528,   -0.085, 2190.528,    0.030
2191.552,   -0.086, 2191.552,    0.030
2192.576,   -0.084, 2192.576,    0.030
2193.600,   -0.084, 2193.600,    0.030
2194.624,   -0.087, 2194.624,    0.030
2195.648,   -0.084, 2195.648,    0.030
2196.672,   -0.082, 2196.672,    0.030
2197.696,   -0.088, 2197.696,    0.030
2198.720,   -0.080, 2198.720,    0.030
2199.744,   -0.087, 2199.744,    0.030
2200.768,   -0.085, 2200.768,    0.030
2201.792,   -0.089, 2201.792,    0.030
2202.816,   -0.091, 2202.816,    0.030
2203.840,   -0.088, 2203.840,    0.030
2204.864,   -0.087, 2204.864,    0.030
2205.888,   -0.085, 2205.888,    0.030
2206.912,   -0.082, 2206.912,    0.030
2207.936,   -0.086, 2207.936,    0.030
2208.960,   -0.084, 2208.960,    0.030
2209.984,   -0.090, 2209.984,    0.030
2211.008,   -0.090, 2211.008,    0.030
2212.032,   -0.090, 2212.032,    0.031
2213.056,   -0.089, 2213.056,    0.031
2214.080,   -0.088, 2214.080,    0.031
2215.104,   -0.091, 2215.104,    0.031
2216.128,   -0.085, 2216.128,    0.031
2217.152,   -0.089, 2217.152,    0.031
2218.176,   -0.090, 2218.176,    0.031
2219.200,   -0.091, 2219.200,    0.031
2220.224,   -0.092, 2220.224,    0.031
2221.248,   -0.093, 2221.248,    0.031
2222.272,   -0.090, 2222.272,    0.031
2223.296,   -0.095, 2223.296,    0.031
2224.320,   -0.095, 2224.320,    0.031
2225.344,   -0.097, 2225.344,    0.031
2226.368,   -0.092, 2226.368,    0.031
2227.392,   -0.097, 2227.392,    0.031
2228.416,   -0.096, 2228.416,    0.031
2229.440,   -0.099, 2229.440,    0.031
2230.464,   -0.098, 2230.464,    0.031
2231.488,   -0.099, 2231.488,    0.031
2232.512,   -0.097, 2232.512,    0.031
2233.536,   -0.103, 2233.536,    0.031
2234.560,   -0.102, 2234.560,    0.031
2235.584,   -0.105, 2235.584,    0.031
2236.608,   -0.108, 2236.608,    0.031
2237.632,   -0.112, 2237.632,    0.031
2238.656,   -0.116, 2238.656,    0.031
2239.680,   -0.115, 2239.680,    0.031
2240.704,   -0.120, 2240.704,    0.031
2241.728,   -0.118, 2241.728,    0.031
2242.752,   -0.119, 2242.752,    0.031
2243.776,   -0.125, 2243.776,    0.031
2244.800,   -0.131, 2244.800,    0.031
2245.824,   -0.130, 2245.824,    0.031
2246.848,   -0.141, 2246.848,    0.031
2247.872,   -0.141, 2247.872,    0.031
2248.896,   -0.147, 2248.896,    0.031
2249.920,   -0.147, 2249.920,    0.031
2250.944,   -0.150, 2250.944,    0.031
2251.968,   -0.153, 2251.968,    0.031
2252.992,   -0.155, 2252.992,    0.031
2254.016,   -0.142, 2254.016,    0.031
2255.040,   -0.155, 2255.040,    0.031
2256.064,   -0.147, 2256.064,    0.031
2257.088,   -0.155, 2257.088,    0.031
2258.112,   -0.140, 2258.112,    0.031
2259.136,   -0.146, 2259.136,    0.031
2260.160,   -0.122, 2260.160,    0.031
2261.184,   -0.102, 2261.184,    0.031
2262.208,   -0.116, 2262.208,    0.031
2263.232,   -0.106, 2263.232,    0.031
2264.256,   -0.093, 2264.256,    0.031
2265.280,   -0.088, 2265.280,    0.031
2266.304,   -0.074, 2266.304,    0.031
2267.328,   -0.072, 2267.328,    0.031
2268.352,   -0.045, 2268.352,    0.031
2269.376,   -0.054, 2269.376,    0.031
2270.400,   -0.036, 2270.400,    0.031
2271.424,   -0.030, 2271.424,    0.031
2272.448,   -0.021, 2272.448,    0.031
2273.472,   -0.021, 2273.472,    0.032
2274.496,   -0.008, 2274.496,    0.032
2275.520,   -0.013, 2275.520,    0.032
2276.544,   -0.002, 2276.544,    0.032
2277.568,   -0.005, 2277.568,    0.032
2278.592,   -0.011, 2278.592,    0.032
2279.616,   -0.011, 2279.616,    0.032
2280.640,   -0.013, 2280.640,    0.032
2281.664,   -0.036, 2281.664,    0.032
2282.688,   -0.027, 2282.688,    0.032
2283.712,   -0.028, 2283.712,    0.032
2284.736,   -0.036, 2284.736,    0.032
2285.760,   -0.033, 2285.760,    0.032
2286.784,   -0.043, 2286.784,    0.032
2287.808,   -0.051, 2287.808,    0.032
2288.832,   -0.056, 2288.832,    0.032
2289.856,   -0.060, 2289.856,    0.032
2290.880,   -0.062, 2290.880,    0.032
2291.904,   -0.062, 2291.904,    0.032
2292.928,   -0.066, 2292.928,    0.032
2293.952,   -0.082, 2293.952,    0.032
2294.976,   -0.080, 2294.976,    0.032
2296.000,   -0.083, 2296.000,    0.032
2297.024,   -0.085, 2297.024,    0.032
2298.048,   -0.084, 2298.048,    0.032
2299.072,   -0.087, 2299.072,    0.032
2300.096,   -0.089, 2300.096,    0.032
2301.120,   -0.089, 2301.120,    0.032
2302.144,   -0.091, 2302.144,    0.032
2303.168,   -0.100, 2303.168,    0.032
2304.192,   -0.099, 2304.192,    0.032
2305.216,   -0.104, 2305.216,    0.032
2306.240,   -0.103, 2306.240,    0.032
2307.264,   -0.110, 2307.264,    0.032
2308.288,   -0.106, 2308.288,    0.032
2309.312,   -0.115, 2309.312,    0.032
2310.336,   -0.112, 2310.336,    0.032
2311.360,   -0.112, 2311.360,    0.032
2312.384,   -0.116, 2312.384,    0.032
2313.408,   -0.111, 2313.408,    0.032
2314.432,   -0.114, 2314.432,    0.032
2315.456,   -0.112, 2315.456,    0.032
2316.480,   -0.111, 2316.480,    0.032
2317.504,   -0.115, 2317.504,    0.032
2318.528,   -0.114, 2318.528,    0.032
2319.552,   -0.113, 2319.552,    0.032
2320.576,   -0.112, 2320.576,    0.032
2321.600,   -0.114, 2321.600,    0.032
2322.624,   -0.112, 2322.624,    0.032
2323.648,   -0.114, 2323.648,    0.032
2324.672,   -0.115, 2324.672,    0.032
2325.696,   -0.116, 2325.696,    0.032
2326.720,   -0.117, 2326.720,    0.032
2327.744,   -0.111, 2327.744,    0.032
2328.768,   -0.115, 2328.768,    0.032
2329.792,   -0.113, 2329.792,    0.032
2330.816,   -0.112, 2330.816,    0.032
2331.840,   -0.109, 2331.840,    0.032
2332.864,   -0.117, 2332.864,    0.032
2333.888,   -0.114, 2333.888,    0.032
2334.912,   -0.113, 2334.912,    0.032
2335.936,   -0.123, 2335.936,    0.032
2336.960,   -0.115, 2336.960,    0.032
2337.984,   -0.118, 2337.984,    0.032
2339.008,   -0.122, 2339.008,    0.032
2340.032,   -0.119, 2340.032,    0.032
2341.056,   -0.128, 2341.056,    0.032
2342.080,   -0.127, 2342.080,    0.032
2343.104,   -0.127, 2343.104,    0.032
2344.128,   -0.130, 2344.128,    0.032
2345.152,   -0.129, 2345.152,    0.033
2346.176,   -0.132, 2346.176,    0.033
2347.200,   -0.132, 2347.200,    0.033
2348.224,   -0.135, 2348.224,    0.033
2349.248,   -0.137, 2349.248,    0.033
2350.272,   -0.144, 2350.272,    0.033
2351.296,   -0.142, 2351.296,    0.033
2352.320,   -0.148, 2352.320,    0.033
2353.344,   -0.155, 2353.344,    0.033
2354.368,   -0.150, 2354.368,    0.033
2355.392,   -0.165, 2355.392,    0.033
2356.416,   -0.168, 2356.416,    0.033
2357.440,   -0.186, 2357.440,    0.033
2358.464,   -0.177, 2358.464,    0.033
2359.488,   -0.199, 2359.488,    0.033
2360.512,   -0.194, 2360.512,    0.033
2361.536,   -0.203, 2361.536,    0.033
2362.560,   -0.210, 2362.560,    0.033
2363.584,   -0.228, 2363.584,    0.033
2364.608,   -0.244, 2364.608,    0.033
2365.632,   -0.256, 2365.632,    0.033
2366.656,   -0.259, 2366.656,    0.033
2367.680,   -0.272, 2367.680,    0.033
2368.704,   -0.290, 2368.704,    0.033
2369.728,   -0.307, 2369.728,    0.033
2370.752,   -0.296, 2370.752,    0.033
2371.776,   -0.330, 2371.776,    0.033
2372.800,   -0.329, 2372.800,    0.033
2373.824,   -0.339, 2373.824,    0.033
2374.848,   -0.335, 2374.848,    0.033
2375.872,   -0.350, 2375.872,    0.033
2376.896,   -0.331, 2376.896,    0.033
2377.920,   -0.344, 2377.920,    0.033
2378.944,   -0.339, 2378.944,    0.033
2379.968,   -0.251, 2379.968,    0.033
2380.992,   -0.318, 2380.992,    0.033
2382.016,   -0.308, 2382.016,    0.033
2383.040,   -0.285, 2383.040,    0.033
2384.064,   -0.252, 2384.064,    0.033
2385.088,   -0.243, 2385.088,    0.033
2386.112,   -0.168, 2386.112,    0.033
2387.136,   -0.161, 2387.136,    0.033
2388.160,   -0.114, 2388.160,    0.033
2389.184,   -0.090, 2389.184,    0.033
2390.208,   -0.064, 2390.208,    0.033
2391.232,   -0.015, 2391.232,    0.033
2392.256,    0.012, 2392.256,    0.033
2393.280,    0.052, 2393.280,    0.033
2394.304,    0.092, 2394.304,    0.033
2395.328,    0.136, 2395.328,    0.033
2396.352,    0.141, 2396.352,    0.033
2397.376,    0.179, 2397.376,    0.033
2398.400,    0.193, 2398.400,    0.033
2399.424,    0.179, 2399.424,    0.033
2400.448,    0.204, 2400.448,    0.033
2401.472,    0.127, 2401.472,    0.033
2402.496,    0.162, 2402.496,    0.033
2403.520,    0.140, 2403.520,    0.033
2404.544,    0.161, 2404.544,    0.033
2405.568,    0.136, 2405.568,    0.033
2406.592,    0.127, 2406.592,    0.033
2407.616,    0.104, 2407.616,    0.033
2408.640,    0.092, 2408.640,    0.033
2409.664,    0.065, 2409.664,    0.033
2410.688,    0.047, 2410.688,    0.033
2411.712,    0.028, 2411.712,    0.033
2412.736,    0.000, 2412.736,    0.033
2413.760,   -0.017, 2413.760,    0.033
2414.784,   -0.016, 2414.784,    0.033
2415.808,   -0.053, 2415.808,    0.034
2416.832,   -0.045, 2416.832,    0.034
2417.856,   -0.084, 2417.856,    0.034
2418.880,   -0.051, 2418.880,    0.034
2419.904,   -0.091, 2419.904,    0.034
2420.928,   -0.091, 2420.928,    0.034
2421.952,   -0.091, 2421.952,    0.034
2422.976,   -0.099, 2422.976,    0.034
2424.000,   -0.100, 2424.000,    0.034
2425.024,   -0.101, 2425.024,    0.034
2426.048,   -0.100, 2426.048,    0.034
2427.072,   -0.095, 2427.072,    0.034
2428.096,   -0.100, 2428.096,    0.034
2429.120,   -0.097, 2429.120,    0.034
2430.144,   -0.095, 2430.144,    0.034
2431.168,   -0.096, 2431.168,    0.034
2432.192,   -0.092, 2432.192,    0.034
2433.216,   -0.096, 2433.216,    0.034
2434.240,   -0.087, 2434.240,    0.034
2435.264,   -0.093, 2435.264,    0.034
2436.288,   -0.092, 2436.288,    0.034
2437.312,   -0.076, 2437.312,    0.034
2438.336,   -0.092, 2438.336,    0.034
2439.360,   -0.076, 2439.360,    0.034
2440.384,   -0.088, 2440.384,    0.034
2441.408,   -0.086, 2441.408,    0.034
2442.432,   -0.089, 2442.432,    0.034
2443.456,   -0.089, 2443.456,    0.034
2444.480,   -0.089, 2444.480,    0.034
2445.504,   -0.092, 2445.504,    0.034
2446.528,   -0.088, 2446.528,    0.034
2447.552,   -0.090, 2447.552,    0.034
2448.576,   -0.088, 2448.576,    0.034
2449.600,   -0.087, 2449.600,    0.034
2450.624,   -0.084, 2450.624,    0.034
2451.648,   -0.091, 2451.648,    0.034
2452.672,   -0.090, 2452.672,    0.034
2453.696,   -0.086, 2453.696,    0.034
2454.720,   -0.090, 2454.720,    0.034
2455.744,   -0.085, 2455.744,    0.034
2456.768,   -0.088, 2456.768,    0.034
2457.792,   -0.090, 2457.792,    0.034
2458.816,   -0.089, 2458.816,    0.034
2459.840,   -0.088, 2459.840,    0.034
2460.864,   -0.098, 2460.864,    0.034
2461.888,   -0.086, 2461.888,    0.034
2462.912,   -0.094, 2462.912,    0.034
2463.936,   -0.094, 2463.936,    0.034
2464.960,   -0.092, 2464.960,    0.034
2465.984,   -0.091, 2465.984,    0.034
2467.008,   -0.091, 2467.008,    0.034
2468.032,   -0.095, 2468.032,    0.034
2469.056,   -0.092, 2469.056,    0.034
2470.080,   -0.097, 2470.080,    0.034
2471.104,   -0.094, 2471.104,    0.034
2472.128,   -0.095, 2472.128,    0.034
2473.152,   -0.095, 2473.152,    0.034
2474.176,   -0.096, 2474.176,    0.034
2475.200,   -0.099, 2475.200,    0.034
2476.224,   -0.101, 2476.224,    0.034
2477.248,   -0.099, 2477.248,    0.034
2478.272,   -0.100, 2478.272,    0.034
2479.296,   -0.097, 2479.296,    0.034
2480.320,   -0.108, 2480.320,    0.034
2481.344,   -0.105, 2481.344,    0.034
2482.368,   -0.108, 2482.368,    0.034
2483.392,   -0.106, 2483.392,    0.034
2484.416,   -0.113, 2484.416,    0.034
2485.440,   -0.107, 2485.440,    0.034
2486.464,   -0.110, 2486.464,    0.034
2487.488,   -0.112, 2487.488,    0.035
2488.512,   -0.115, 2488.512,    0.035
2489.536,   -0.128, 2489.536,    0.035
2490.560,   -0.124, 2490.560,    0.035
2491.584,   -0.133, 2491.584,    0.035
2492.608,   -0.130, 2492.608,    0.035
2493.632,   -0.134, 2493.632,    0.035
2494.656,   -0.133, 2494.656,    0.035
2495.680,   -0.145, 2495.680,    0.035
2496.704,   -0.147, 2496.704,    0.035
2497.728,   -0.156, 2497.728,    0.035
2498.752,   -0.183, 2498.752,    0.035
2499.776,   -0.177, 2499.776,    0.035
2500.800,   -0.179, 2500.800,    0.035
2501.824,   -0.175, 2501.824,    0.035
2502.848,   -0.193, 2502.848,    0.035
2503.872,   -0.205, 2503.872,    0.035
2504.896,   -0.214, 2504.896,    0.035
2505.920,   -0.225, 2505.920,    0.035
2506.944,   -0.230, 2506.944,    0.035
2507.968,   -0.242, 2507.968,    0.035
2508.992,   -0.246, 2508.992,    0.035
2510.016,   -0.273, 2510.016,    0.035
2511.040,   -0.269, 2511.040,    0.035
2512.064,   -0.286, 2512.064,    0.035
2513.088,   -0.267, 2513.088,    0.035
2514.112,   -0.299, 2514.112,    0.035
2515.136,   -0.307, 2515.136,    0.035
2516.160,   -0.316, 2516.160,    0.035
2517.184,   -0.307, 2517.184,    0.035
2518.208,   -0.276, 2518.208,    0.035
2519.232,   -0.306, 2519.232,    0.035
2520.256,   -0.232, 2520.256,    0.035
2521.280,   -0.285, 2521.280,    0.035
2522.304,   -0.216, 2522.304,    0.035
2523.328,   -0.249, 2523.328,    0.035
2524.352,   -0.204, 2524.352,    0.035
2525.376,   -0.155, 2525.376,    0.035
2526.400,   -0.151, 2526.400,    0.035
2527.424,   -0.147, 2527.424,    0.035
2528.448,   -0.116, 2528.448,    0.035
2529.472,   -0.076, 2529.472,    0.035
2530.496,   -0.044, 2530.496,    0.035
2531.520,   -0.000, 2531.520,    0.035
2532.544,    0.039, 2532.544,    0.035
2533.568,    0.077, 2533.568,    0.035
2534.592,    0.130, 2534.592,    0.035
2535.616,    0.162, 2535.616,    0.035
2536.640,    0.205, 2536.640,    0.035
2537.664,    0.213, 2537.664,    0.035
2538.688,    0.304, 2538.688,    0.035
2539.712,    0.299, 2539.712,    0.035
2540.736,    0.239, 2540.736,    0.035
2541.760,    0.367, 2541.760,    0.035
2542.784,    0.428, 2542.784,    0.035
2543.808,    0.417, 2543.808,    0.035
2544.832,    0.449, 2544.832,    0.035
2545.856,    0.454, 2545.856,    0.035
2546.880,    0.436, 2546.880,    0.035
2547.904,    0.424, 2547.904,    0.035
2548.928,    0.292, 2548.928,    0.035
2549.952,    0.327, 2549.952,    0.035
2550.976,    0.287, 2550.976,    0.035
2552.000,    0.283, 2552.000,    0.035
2553.024,    0.202, 2553.024,    0.035
2554.048,    0.163, 2554.048,    0.035
2555.072,    0.108, 2555.072,    0.035
2556.096,    0.057, 2556.096,    0.035
2557.120,    0.004, 2557.120,    0.035
2558.144,    0.054, 2558.144,    0.035
2559.168,   -0.093, 2559.168,    0.035
2560.192,   -0.150, 2560.192,    0.035
2561.216,   -0.162, 2561.216,    0.035
2562.240,   -0.109, 2562.240,    0.035
2563.264,   -0.201, 2563.264,    0.035
2564.288,   -0.103, 2564.288,    0.035
2565.312,   -0.218, 2565.312,    0.035
2566.336,   -0.186, 2566.336,    0.035
2567.360,   -0.201, 2567.360,    0.035
2568.384,   -0.185, 2568.384,    0.035
2569.408,   -0.194, 2569.408,    0.036
2570.432,   -0.177, 2570.432,    0.036
2571.456,   -0.176, 2571.456,    0.036
2572.480,   -0.165, 2572.480,    0.036
2573.504,   -0.167, 2573.504,    0.036
2574.528,   -0.161, 2574.528,    0.036
2575.552,   -0.156, 2575.552,    0.036
2576.576,   -0.155, 2576.576,    0.036
2577.600,   -0.164, 2577.600,    0.036
2578.624,   -0.150, 2578.624,    0.036
2579.648,   -0.166, 2579.648,    0.036
2580.672,   -0.160, 2580.672,    0.036
2581.696,   -0.177, 2581.696,    0.036
2582.720,   -0.177, 2582.720,    0.036
2583.744,   -0.187, 2583.744,    0.036
2584.768,   -0.188, 2584.768,    0.036
2585.792,   -0.185, 2585.792,    0.036
2586.816,   -0.197, 2586.816,    0.036
2587.840,   -0.195, 2587.840,    0.036
2588.864,   -0.207, 2588.864,    0.036
2589.888,   -0.201, 2589.888,    0.036
2590.912,   -0.191, 2590.912,    0.036
2591.936,   -0.197, 2591.936,    0.036
2592.960,   -0.152, 2592.960,    0.036
2593.984,   -0.175, 2593.984,    0.036
2595.008,   -0.126, 2595.008,    0.036
2596.032,   -0.138, 2596.032,    0.036
2597.056,   -0.106, 2597.056,    0.036
2598.080,   -0.099, 2598.080,    0.036
2599.104,   -0.067, 2599.104,    0.036
2600.128,   -0.048, 2600.128,    0.036
2601.152,   -0.017, 2601.152,    0.036
2602.176,    0.001, 2602.176,    0.036
2603.200,    0.018, 2603.200,    0.036
2604.224,    0.044, 2604.224,    0.036
2605.248,    0.062, 2605.248,    0.036
2606.272,    0.077, 2606.272,    0.036
2607.296,    0.094, 2607.296,    0.036
2608.320,    0.068, 2608.320,    0.036
2609.344,    0.117, 2609.344,    0.036
2610.368,    0.048, 2610.368,    0.036
2611.392,    0.118, 2611.392,    0.036
2612.416,    0.082, 2612.416,    0.036
2613.440,    0.101, 2613.440,    0.036
2614.464,    0.066, 2614.464,    0.036
2615.488,    0.080, 2615.488,    0.036
2616.512,    0.057, 2616.512,    0.036
2617.536,   -0.042, 2617.536,    0.036
2618.560,    0.031, 2618.560,    0.036
2619.584,    0.009, 2619.584,    0.036
2620.608,   -0.002, 2620.608,    0.036
2621.632,   -0.034, 2621.632,    0.036
2622.656,   -0.043, 2622.656,    0.036
2623.680,   -0.053, 2623.680,    0.036
2624.704,   -0.083, 2624.704,    0.036
2625.728,   -0.086, 2625.728,    0.036
2626.752,   -0.111, 2626.752,    0.036
2627.776,   -0.111, 2627.776,    0.036
2628.800,   -0.134, 2628.800,    0.036
2629.824,   -0.128, 2629.824,    0.036
2630.848,   -0.147, 2630.848,    0.036
2631.872,   -0.137, 2631.872,    0.036
2632.896,   -0.153, 2632.896,    0.036
2633.920,   -0.150, 2633.920,    0.036
2634.944,   -0.146, 2634.944,    0.036
2635.968,   -0.152, 2635.968,    0.036
2636.992,   -0.142, 2636.992,    0.036
2638.016,   -0.157, 2638.016,    0.036
2639.040,   -0.138, 2639.040,    0.036
2640.064,   -0.155, 2640.064,    0.037
2641.088,   -0.151, 2641.088,    0.037
2642.112,   -0.151, 2642.112,    0.037
2643.136,   -0.147, 2643.136,    0.037
2644.160,   -0.148, 2644.160,    0.037
2645.184,   -0.145, 2645.184,    0.037
2646.208,   -0.139, 2646.208,    0.037
2647.232,   -0.144, 2647.232,    0.037
2648.256,   -0.140, 2648.256,    0.037
2649.280,   -0.140, 2649.280,    0.037
2650.304,   -0.142, 2650.304,    0.037
2651.328,   -0.138, 2651.328,    0.037
2652.352,   -0.138, 2652.352,    0.037
2653.376,   -0.136, 2653.376,    0.037
2654.400,   -0.135, 2654.400,    0.037
2655.424,   -0.134, 2655.424,    0.037
2656.448,   -0.135, 2656.448,    0.037
2657.472,   -0.131, 2657.472,    0.037
2658.496,   -0.127, 2658.496,    0.037
2659.520,   -0.133, 2659.520,    0.037
2660.544,   -0.129, 2660.544,    0.037
2661.568,   -0.127, 2661.568,    0.037
2662.592,   -0.133, 2662.592,    0.037
2663.616,   -0.129, 2663.616,    0.037
2664.640,   -0.135, 2664.640,    0.037
2665.664,   -0.129, 2665.664,    0.037
2666.688,   -0.128, 2666.688,    0.037
2667.712,   -0.125, 2667.712,    0.037
2668.736,   -0.127, 2668.736,    0.037
2669.760,   -0.125, 2669.760,    0.037
2670.784,   -0.123, 2670.784,    0.037
2671.808,   -0.123, 2671.808,    0.037
2672.832,   -0.125, 2672.832,    0.037
2673.856,   -0.121, 2673.856,    0.037
2674.880,   -0.119, 2674.880,    0.037
2675.904,   -0.123, 2675.904,    0.037
2676.928,   -0.127, 2676.928,    0.037
2677.952,   -0.123, 2677.952,    0.037
2678.976,   -0.128, 2678.976,    0.037
2680.000,   -0.120, 2680.000,    0.037
2681.024,   -0.128, 2681.024,    0.037
2682.048,   -0.124, 2682.048,    0.037
2683.072,   -0.125, 2683.072,    0.037
2684.096,   -0.121, 2684.096,    0.037
2685.120,   -0.121, 2685.120,    0.037
2686.144,   -0.122, 2686.144,    0.037
2687.168,   -0.124, 2687.168,    0.037
2688.192,   -0.114, 2688.192,    0.037
2689.216,   -0.121, 2689.216,    0.037
2690.240,   -0.117, 2690.240,    0.037
2691.264,   -0.123, 2691.264,    0.037
2692.288,   -0.119, 2692.288,    0.037
2693.312,   -0.119, 2693.312,    0.037
2694.336,   -0.120, 2694.336,    0.037
2695.360,   -0.119, 2695.360,    0.037
2696.384,   -0.119, 2696.384,    0.037
2697.408,   -0.120, 2697.408,    0.037
2698.432,   -0.118, 2698.432,    0.037
2699.456,   -0.118, 2699.456,    0.037
2700.480,   -0.121, 2700.480,    0.037
2701.504,   -0.123, 2701.504,    0.037
2702.528,   -0.120, 2702.528,    0.037
2703.552,   -0.118, 2703.552,    0.037
2704.576,   -0.120, 2704.576,    0.037
2705.600,   -0.122, 2705.600,    0.037
2706.624,   -0.119, 2706.624,    0.037
2707.648,   -0.120, 2707.648,    0.037
2708.672,   -0.122, 2708.672,    0.037
2709.696,   -0.121, 2709.696,    0.037
2710.720,   -0.118, 2710.720,    0.037
2711.744,   -0.123, 2711.744,    0.038
2712.768,   -0.118, 2712.768,    0.038
2713.792,   -0.119, 2713.792,    0.038
2714.816,   -0.115, 2714.816,    0.038
2715.840,   -0.118, 2715.840,    0.038
2716.864,   -0.121, 2716.864,    0.038
2717.888,   -0.122, 2717.888,    0.038
2718.912,   -0.118, 2718.912,    0.038
2719.936,   -0.118, 2719.936,    0.038
2720.960,   -0.119, 2720.960,    0.038
2721.984,   -0.117, 2721.984,    0.038
2723.008,   -0.119, 2723.008,    0.038
2724.032,   -0.119, 2724.032,    0.038
2725.056,   -0.120, 2725.056,    0.038
2726.080,   -0.117, 2726.080,    0.038
2727.104,   -0.120, 2727.104,    0.038
2728.128,   -0.116, 2728.128,    0.038
2729.152,   -0.115, 2729.152,    0.038
2730.176,   -0.116, 2730.176,    0.038
2731.200,   -0.114, 2731.200,    0.038
2732.224,   -0.114, 2732.224,    0.038
2733.248,   -0.118, 2733.248,    0.038
2734.272,   -0.113, 2734.272,    0.038
2735.296,   -0.120, 2735.296,    0.038
2736.320,   -0.117, 2736.320,    0.038
2737.344,   -0.117, 2737.344,    0.038
2738.368,   -0.118, 2738.368,    0.038
2739.392,   -0.118, 2739.392,    0.038
2740.416,   -0.117, 2740.416,    0.038
2741.440,   -0.119, 2741.440,    0.038
2742.464,   -0.115, 2742.464,    0.038
2743.488,   -0.115, 2743.488,    0.038
2744.512,   -0.112, 2744.512,    0.038
2745.536,   -0.120, 2745.536,    0.038
2746.560,   -0.122, 2746.560,    0.038
2747.584,   -0.111, 2747.584,    0.038
2748.608,   -0.116, 2748.608,    0.038
2749.632,   -0.119, 2749.632,    0.038
2750.656,   -0.113, 2750.656,    0.038
2751.680,   -0.115, 2751.680,    0.038
2752.704,   -0.118, 2752.704,    0.038
2753.728,   -0.116, 2753.728,    0.038
2754.752,   -0.114, 2754.752,    0.038
2755.776,   -0.117, 2755.776,    0.038
2756.800,   -0.116, 2756.800,    0.038
2757.824,   -0.115, 2757.824,    0.038
2758.848,   -0.116, 2758.848,    0.038
2759.872,   -0.114, 2759.872,    0.038
2760.896,   -0.113, 2760.896,    0.038
2761.920,   -0.116, 2761.920,    0.038
2762.944,   -0.115, 2762.944,    0.038
2763.968,   -0.112, 2763.968,    0.038
2764.992,   -0.113, 2764.992,    0.038
2766.016,   -0.115, 2766.016,    0.038
2767.040,   -0.114, 2767.040,    0.038
2768.064,   -0.116, 2768.064,    0.038
2769.088,   -0.116, 2769.088,    0.038
2770.112,   -0.117, 2770.112,    0.038
2771.136,   -0.113, 2771.136,    0.038
2772.160,   -0.118, 2772.160,    0.038
2773.184,   -0.116, 2773.184,    0.038
2774.208,   -0.114, 2774.208,    0.038
2775.232,   -0.118, 2775.232,    0.038
2776.256,   -0.115, 2776.256,    0.038
2777.280,   -0.114, 2777.280,    0.038
2778.304,   -0.119, 2778.304,    0.038
2779.328,   -0.114, 2779.328,    0.038
2780.352,   -0.117, 2780.352,    0.038
2781.376,   -0.119, 2781.376,    0.038
2782.400,   -0.116, 2782.400,    0.038
2783.424,   -0.111, 2783.424,    0.039
2784.448,   -0.116, 2784.448,    0.039
2785.472,   -0.110, 2785.472,    0.039
2786.496,   -0.115, 2786.496,    0.039
2787.520,   -0.118, 2787.520,    0.039
2788.544,   -0.117, 2788.544,    0.039
2789.568,   -0.114, 2789.568,    0.039
2790.592,   -0.119, 2790.592,    0.039
2791.616,   -0.116, 2791.616,    0.039
2792.640,   -0.114, 2792.640,    0.039
2793.664,   -0.113, 2793.664,    0.039
2794.688,   -0.119, 2794.688,    0.039
2795.712,   -0.119, 2795.712,    0.039
2796.736,   -0.117, 2796.736,    0.039
2797.760,   -0.117, 2797.760,    0.039
2798.784,   -0.119, 2798.784,    0.039
2799.808,   -0.117, 2799.808,    0.039
2800.832,   -0.118, 2800.832,    0.039
2801.856,   -0.113, 2801.856,    0.039
2802.880,   -0.120, 2802.880,    0.039
2803.904,   -0.118, 2803.904,    0.039
2804.928,   -0.118, 2804.928,    0.039
2805.952,   -0.113, 2805.952,    0.039
2806.976,   -0.115, 2806.976,    0.039
2808.000,   -0.117, 2808.000,    0.039
2809.024,   -0.116, 2809.024,    0.039
2810.048,   -0.117, 2810.048,    0.039
2811.072,   -0.117, 2811.072,    0.039
2812.096,   -0.116, 2812.096,    0.039
2813.120,   -0.116, 2813.120,    0.039
2814.144,   -0.121, 2814.144,    0.039
2815.168,   -0.117, 2815.168,    0.039
2816.192,   -0.123, 2816.192,    0.039
2817.216,   -0.116, 2817.216,    0.039
2818.240,   -0.115, 2818.240,    0.039
2819.264,   -0.119, 2819.264,    0.039
2820.288,   -0.118, 2820.288,    0.039
2821.312,   -0.117, 2821.312,    0.039
2822.336,   -0.118, 2822.336,    0.039
2823.360,   -0.119, 2823.360,    0.039
2824.384,   -0.114, 2824.384,    0.039
2825.408,   -0.112, 2825.408,    0.039
2826.432,   -0.116, 2826.432,    0.039
2827.456,   -0.118, 2827.456,    0.039
2828.480,   -0.115, 2828.480,    0.039
2829.504,   -0.115, 2829.504,    0.039
2830.528,   -0.119, 2830.528,    0.039
2831.552,   -0.117, 2831.552,    0.039
2832.576,   -0.110, 2832.576,    0.039
2833.600,   -0.116, 2833.600,    0.039
2834.624,   -0.120, 2834.624,    0.039
2835.648,   -0.116, 2835.648,    0.039
2836.672,   -0.117, 2836.672,    0.039
2837.696,   -0.118, 2837.696,    0.039
2838.720,   -0.116, 2838.720,    0.039
2839.744,   -0.118, 2839.744,    0.039
2840.768,   -0.115, 2840.768,    0.039
2841.792,   -0.117, 2841.792,    0.039
2842.816,   -0.116, 2842.816,    0.039
2843.840,   -0.119, 2843.840,    0.039
2844.864,   -0.118, 2844.864,    0.039
2845.888,   -0.115, 2845.888,    0.039
2846.912,   -0.116, 2846.912,    0.039
2847.936,   -0.114, 2847.936,    0.039
2848.960,   -0.118, 2848.960,    0.039
2849.984,   -0.116, 2849.984,    0.039
2851.008,   -0.116, 2851.008,    0.039
2852.032,   -0.116, 2852.032,    0.039
2853.056,   -0.118, 2853.056,    0.039
2854.080,   -0.118, 2854.080,    0.040
2855.104,   -0.118, 2855.104,    0.040
2856.128,   -0.116, 2856.128,    0.040
2857.152,   -0.116, 2857.152,    0.040
2858.176,   -0.118, 2858.176,    0.040
2859.200,   -0.114, 2859.200,    0.040
2860.224,   -0.115, 2860.224,    0.040
2861.248,   -0.119, 2861.248,    0.040
2862.272,   -0.120, 2862.272,    0.040
2863.296,   -0.115, 2863.296,    0.040
2864.320,   -0.114, 2864.320,    0.040
2865.344,   -0.118, 2865.344,    0.040
2866.368,   -0.117, 2866.368,    0.040
2867.392,   -0.121, 2867.392,    0.040
2868.416,   -0.119, 2868.416,    0.040
2869.440,   -0.118, 2869.440,    0.040
2870.464,   -0.117, 2870.464,    0.040
2871.488,   -0.118, 2871.488,    0.040
2872.512,   -0.119, 2872.512,    0.040
2873.536,   -0.121, 2873.536,    0.040
2874.560,   -0.115, 2874.560,    0.040
2875.584,   -0.116, 2875.584,    0.040
2876.608,   -0.118, 2876.608,    0.040
2877.632,   -0.115, 2877.632,    0.040
2878.656,   -0.121, 2878.656,    0.040
2879.680,   -0.114, 2879.680,    0.040
2880.704,   -0.119, 2880.704,    0.040
2881.728,   -0.119, 2881.728,    0.040
2882.752,   -0.121, 2882.752,    0.040
2883.776,   -0.117, 2883.776,    0.040
2884.800,   -0.118, 2884.800,    0.040
2885.824,   -0.114, 2885.824,    0.040
2886.848,   -0.120, 2886.848,    0.040
2887.872,   -0.121, 2887.872,    0.040
2888.896,   -0.118, 2888.896,    0.040
2889.920,   -0.118, 2889.920,    0.040
2890.944,   -0.121, 2890.944,    0.040
2891.968,   -0.117, 2891.968,    0.040
2892.992,   -0.123, 2892.992,    0.040
2894.016,   -0.118, 2894.016,    0.040
2895.040,   -0.115, 2895.040,    0.040
2896.064,   -0.117, 2896.064,    0.040
2897.088,   -0.118, 2897.088,    0.040
2898.112,   -0.117, 2898.112,    0.040
2899.136,   -0.117, 2899.136,    0.040
2900.160,   -0.117, 2900.160,    0.040
2901.184,   -0.119, 2901.184,    0.040
2902.208,   -0.119, 2902.208,    0.040
2903.232,   -0.114, 2903.232,    0.040
2904.256,   -0.113, 2904.256,    0.040
2905.280,   -0.121, 2905.280,    0.040
2906.304,   -0.118, 2906.304,    0.040
2907.328,   -0.118, 2907.328,    0.040
2908.352,   -0.123, 2908.352,    0.040
2909.376,   -0.123, 2909.376,    0.040
2910.400,   -0.117, 2910.400,    0.040
2911.424,   -0.118, 2911.424,    0.040
2912.448,   -0.120, 2912.448,    0.040
2913.472,   -0.118, 2913.472,    0.040
2914.496,   -0.121, 2914.496,    0.040
2915.520,   -0.120, 2915.520,    0.040
2916.544,   -0.121, 2916.544,    0.040
2917.568,   -0.121, 2917.568,    0.040
2918.592,   -0.119, 2918.592,    0.040
2919.616,   -0.121, 2919.616,    0.040
2920.640,   -0.122, 2920.640,    0.040
2921.664,   -0.121, 2921.664,    0.040
2922.688,   -0.121, 2922.688,    0.040
2923.712,   -0.120, 2923.712,    0.040
2924.736,   -0.118, 2924.736,    0.040
2925.760,   -0.113, 2925.760,    0.040
2926.784,   -0.118, 2926.784,    0.040
2927.808,   -0.119, 2927.808,    0.040
2928.832,   -0.118, 2928.832,    0.040
